timestamps,TP9,AF7,AF8,TP10,Right AUX,Marker0
1566844445.085,41.504,33.691,31.738,39.062,53.711,0
1566844445.089,43.945,18.066,32.715,38.574,47.363,0
1566844445.092,49.316,37.109,32.227,41.504,43.945,0
1566844445.096,42.969,62.012,30.762,36.621,44.434,0
1566844445.100,34.180,57.617,28.320,31.250,41.992,0
1566844445.104,39.062,50.293,30.273,37.598,54.688,0
1566844445.108,39.551,46.387,31.250,40.039,47.852,0
1566844445.112,40.527,39.551,29.297,39.062,44.922,0
1566844445.116,41.504,45.410,27.832,39.062,49.805,0
1566844445.120,39.062,53.223,26.367,35.156,62.500,0
1566844445.124,42.480,46.875,27.832,35.156,66.406,0
1566844445.128,47.852,47.852,26.855,37.598,69.336,0
1566844445.132,50.781,48.828,26.367,38.086,72.754,0
1566844445.135,44.434,60.059,24.902,38.574,59.082,0
1566844445.139,43.945,64.453,25.879,38.574,63.965,0
1566844445.143,54.199,34.180,28.320,40.527,71.289,0
1566844445.147,58.594,27.832,30.273,41.016,75.684,0
1566844445.151,59.082,47.852,31.738,42.969,87.891,0
1566844445.155,54.688,50.293,26.367,44.434,88.867,0
1566844445.159,49.805,36.621,26.367,37.109,77.637,0
1566844445.163,50.293,43.945,27.344,31.738,56.641,0
1566844445.167,46.387,54.688,23.926,29.785,44.922,0
1566844445.171,43.945,47.852,27.832,32.715,66.406,0
1566844445.174,49.805,44.434,32.227,33.691,77.148,0
1566844445.178,43.945,37.598,30.762,26.367,66.895,0
1566844445.182,40.039,52.734,33.691,27.832,54.688,0
1566844445.186,44.434,50.293,35.156,32.715,53.711,0
1566844445.190,40.039,33.691,33.203,31.738,60.059,0
1566844445.194,35.645,35.645,32.715,33.691,48.828,0
1566844445.198,34.668,35.645,37.598,36.621,34.180,0
1566844445.202,34.180,34.180,36.621,32.715,31.250,0
1566844445.206,30.273,30.273,34.668,26.855,36.621,0
1566844445.210,25.391,32.227,38.574,26.855,40.039,0
1566844445.214,24.902,45.898,35.645,31.738,33.691,0
1566844445.217,24.902,52.734,32.227,31.738,38.086,0
1566844445.221,28.320,40.039,35.156,30.762,22.461,0
1566844445.225,19.531,33.203,35.156,25.391,-1.465,0
1566844445.229,19.043,31.738,33.203,24.414,13.184,0
1566844445.233,27.344,15.625,32.715,31.738,21.973,0
1566844445.237,25.391,14.648,31.738,31.250,20.996,0
1566844445.241,20.020,41.016,24.902,23.438,9.277,0
1566844445.245,17.578,51.270,26.367,25.879,7.324,0
1566844445.249,21.973,47.852,30.273,25.879,8.301,0
1566844445.253,16.113,45.410,24.902,17.090,6.836,0
1566844445.257,16.113,42.969,29.297,17.578,21.973,0
1566844445.260,22.949,39.062,33.691,21.973,30.273,0
1566844445.264,21.973,17.578,34.668,21.484,13.672,0
1566844445.268,19.531,12.695,36.621,15.137,-11.719,0
1566844445.272,16.113,35.156,33.203,11.230,-12.207,0
1566844445.276,22.949,41.504,35.645,18.555,-0.488,0
1566844445.280,24.414,47.852,38.086,24.414,-4.883,0
1566844445.284,20.508,48.828,38.086,21.973,24.902,0
1566844445.288,22.949,28.809,38.086,20.508,43.945,0
1566844445.292,25.879,19.531,40.527,23.926,27.832,0
1566844445.296,27.344,29.297,39.551,27.344,30.762,0
1566844445.299,32.227,33.691,39.062,32.227,33.203,0
1566844445.303,41.016,41.992,43.457,39.551,44.922,0
1566844445.307,41.016,35.645,39.062,42.969,59.570,0
1566844445.311,39.551,20.996,35.645,41.992,62.012,0
1566844445.315,33.691,38.574,35.156,40.039,60.059,0
1566844445.319,33.691,52.246,36.621,44.922,67.383,0
1566844445.323,44.434,37.109,40.527,49.805,80.566,0
1566844445.327,41.016,25.391,36.133,46.875,75.684,0
1566844445.331,41.504,24.414,38.086,49.805,62.988,0
1566844445.335,46.387,23.926,41.016,47.363,61.523,0
1566844445.339,38.086,38.574,40.039,41.504,75.684,0
1566844445.342,37.598,38.086,40.039,42.480,65.430,0
1566844445.346,38.574,26.367,38.086,43.457,41.016,0
1566844445.350,37.598,28.809,40.039,47.363,47.852,0
1566844445.354,36.621,36.133,38.574,42.969,57.129,0
1566844445.358,36.621,33.691,39.062,41.992,66.406,0
1566844445.362,36.133,29.297,41.504,48.340,59.082,0
1566844445.366,33.203,30.273,38.086,44.434,33.203,0
1566844445.370,30.273,45.410,36.621,39.062,32.715,0
1566844445.374,24.902,56.641,35.645,35.645,22.461,0
1566844445.378,30.762,37.109,40.039,39.551,23.926,0
1566844445.382,34.180,6.836,42.969,45.410,47.363,0
1566844445.385,39.551,1.465,42.480,44.922,60.059,0
1566844445.389,39.062,31.250,41.016,39.551,48.828,0
1566844445.393,31.250,46.875,35.156,36.133,21.484,0
1566844445.397,33.203,45.898,33.691,38.086,16.113,0
1566844445.401,28.320,50.781,31.250,35.645,20.020,0
1566844445.405,28.809,54.688,31.738,34.668,17.578,0
1566844445.409,39.551,61.035,35.645,38.086,22.949,0
1566844445.413,41.992,58.105,38.574,40.527,34.180,0
1566844445.417,42.969,43.457,38.574,41.016,21.973,0
1566844445.421,44.434,31.250,32.715,36.133,18.066,0
1566844445.424,45.898,42.969,33.691,37.598,27.344,0
1566844445.428,48.340,53.711,34.668,39.551,15.625,0
1566844445.432,50.781,49.805,30.762,36.621,5.371,0
1566844445.436,52.246,37.598,30.273,35.156,-0.488,0
1566844445.440,47.852,32.715,32.227,35.645,12.207,0
1566844445.444,45.410,36.133,32.715,34.180,21.973,0
1566844445.448,46.387,40.527,32.715,36.621,13.672,0
1566844445.452,50.781,43.945,37.598,44.922,29.297,0
1566844445.456,52.246,50.781,35.645,42.480,49.316,0
1566844445.460,43.945,49.805,25.391,33.691,48.340,0
1566844445.464,47.363,45.410,25.879,38.086,43.945,0
1566844445.467,49.316,41.016,26.855,39.062,26.367,0
1566844445.471,41.504,44.434,30.273,40.527,24.414,0
1566844445.475,42.969,51.758,34.668,43.457,36.621,0
1566844445.479,41.992,34.180,32.715,39.551,42.969,0
1566844445.483,44.922,19.043,38.574,43.457,50.781,0
1566844445.487,46.387,17.578,39.062,42.480,39.551,0
1566844445.491,40.039,21.484,35.156,36.133,32.227,0
1566844445.495,25.391,34.180,35.156,31.250,40.527,0
1566844445.499,27.832,52.734,38.086,34.668,41.504,0
1566844445.503,28.809,50.293,36.621,31.250,34.180,0
1566844445.507,30.273,43.945,35.156,29.785,34.180,0
1566844445.510,32.227,38.086,38.574,33.203,20.996,0
1566844445.514,26.855,28.809,40.039,31.250,10.742,0
1566844445.518,30.762,28.320,40.527,30.273,17.578,0
1566844445.522,27.832,40.527,39.551,29.785,19.531,0
1566844445.526,28.809,49.805,41.992,33.203,27.832,0
1566844445.530,26.367,45.410,40.527,30.273,32.227,0
1566844445.534,26.855,43.457,36.621,28.320,31.738,0
1566844445.538,24.414,36.621,33.691,26.855,19.043,0
1566844445.542,25.879,33.691,34.180,26.367,10.254,0
1566844445.546,40.527,43.945,37.109,36.621,33.691,0
1566844445.549,24.414,46.875,35.156,36.133,38.086,0
1566844445.553,0.488,43.945,34.180,33.203,29.297,0
1566844445.557,3.906,41.992,36.621,37.598,40.039,0
1566844445.561,14.648,41.504,32.715,31.738,36.133,0
1566844445.565,29.297,41.992,33.203,34.180,26.855,0
1566844445.569,36.133,32.715,33.203,34.180,36.621,0
1566844445.573,35.156,35.645,30.762,30.273,40.039,0
1566844445.577,33.691,47.852,28.809,30.762,31.250,0
1566844445.581,34.668,47.363,26.367,25.391,36.133,0
1566844445.585,45.410,36.133,31.738,30.273,46.875,0
1566844445.589,44.922,37.598,38.574,35.645,62.500,0
1566844445.592,40.527,41.504,37.109,34.668,140.625,0
1566844445.596,46.387,27.832,37.598,31.738,249.512,0
1566844445.600,45.410,29.297,35.645,27.832,355.469,0
1566844445.604,36.621,49.316,35.156,26.367,475.586,0
1566844445.608,40.527,41.992,41.504,31.250,556.641,0
1566844445.612,39.551,21.484,38.574,31.250,556.152,0
1566844445.616,38.086,22.949,35.156,29.297,473.633,0
1566844445.620,41.016,44.434,43.457,35.645,319.824,0
1566844445.624,38.574,53.223,46.875,40.527,129.883,0
1566844445.628,30.273,41.016,41.992,39.551,-42.480,0
1566844445.632,27.832,32.715,38.574,38.086,-138.672,0
1566844445.635,29.297,35.156,39.062,38.574,-160.156,0
1566844445.639,23.926,40.527,36.621,33.203,-143.066,0
1566844445.643,31.250,44.922,35.156,29.785,-143.555,0
1566844445.647,31.250,32.227,37.109,28.320,-166.016,0
1566844445.651,27.832,26.855,33.203,26.367,-153.809,0
1566844445.655,39.062,34.668,36.133,32.715,-113.281,0
1566844445.659,41.504,30.762,38.086,33.691,-88.379,0
1566844445.663,39.551,31.738,37.598,28.809,-71.289,0
1566844445.667,39.551,31.738,39.062,29.785,-76.172,0
1566844445.671,38.086,29.785,35.645,29.297,-71.777,0
1566844445.674,38.574,33.203,33.203,30.762,-67.383,0
1566844445.678,39.551,43.945,31.250,29.297,-67.871,0
1566844445.682,44.922,46.875,32.715,30.762,-44.922,0
1566844445.686,56.641,31.250,36.621,37.598,-27.832,0
1566844445.690,62.988,33.691,39.062,41.504,-25.879,0
1566844445.694,57.617,49.316,34.668,41.504,-22.461,0
1566844445.698,55.176,39.551,32.227,41.992,-16.602,0
1566844445.702,56.641,15.137,36.133,44.434,-5.859,0
1566844445.706,55.664,18.555,37.598,50.781,1.953,0
1566844445.710,59.570,35.156,40.039,57.129,3.906,0
1566844445.714,56.641,38.086,39.062,54.688,2.441,0
1566844445.717,50.781,32.715,39.551,49.805,8.301,0
1566844445.721,46.875,31.250,37.109,42.480,6.836,0
1566844445.725,42.480,38.086,35.156,40.039,5.371,0
1566844445.729,43.945,41.504,38.086,43.457,15.137,0
1566844445.733,41.992,36.621,36.133,39.551,-1.465,0
1566844445.737,38.574,30.273,40.039,41.504,-13.184,0
1566844445.741,37.598,30.762,41.992,39.551,-2.441,0
1566844445.745,33.203,33.691,39.551,37.109,9.277,0
1566844445.749,33.691,32.227,39.062,36.133,14.648,0
1566844445.753,34.668,38.574,38.574,35.645,8.789,0
1566844445.757,36.133,42.969,37.598,41.016,4.395,0
1566844445.760,36.133,39.551,37.598,43.457,5.371,0
1566844445.764,31.738,43.945,30.762,33.203,9.277,0
1566844445.768,28.320,26.367,24.902,30.273,12.695,0
1566844445.772,37.109,6.836,29.297,39.062,35.156,0
1566844445.776,38.574,34.180,28.320,35.156,30.273,0
1566844445.780,33.691,57.129,26.855,31.250,0.977,0
1566844445.784,36.621,55.176,27.344,34.668,20.020,0
1566844445.788,41.016,45.410,26.367,38.574,42.969,0
1566844445.792,39.062,40.039,24.414,31.738,38.574,0
1566844445.796,47.363,42.969,28.320,34.668,41.992,0
1566844445.799,51.758,49.316,33.691,38.086,45.898,0
1566844445.803,40.039,47.363,27.832,26.367,27.832,0
1566844445.807,34.180,49.316,25.879,26.855,20.508,0
1566844445.811,36.133,50.293,29.297,30.273,33.203,0
1566844445.815,40.527,46.387,30.762,32.715,44.434,0
1566844445.819,38.574,42.480,29.785,33.691,46.387,0
1566844445.823,41.504,43.945,28.809,34.180,52.734,0
1566844445.827,43.457,38.574,29.785,39.551,53.711,0
1566844445.831,49.316,19.531,32.715,37.598,55.176,0
1566844445.835,46.875,28.809,29.297,33.203,50.781,0
1566844445.839,35.645,42.480,25.391,30.273,63.965,0
1566844445.842,34.180,48.828,30.762,31.738,92.285,0
1566844445.846,31.250,54.688,32.227,29.297,54.688,0
1566844445.850,28.809,42.480,29.785,25.879,17.090,0
1566844445.854,28.809,34.180,31.738,30.762,43.457,0
1566844445.858,25.391,40.527,31.250,27.832,56.641,0
1566844445.862,26.855,41.016,31.250,27.832,51.758,0
1566844445.866,30.762,45.898,30.762,27.344,48.340,0
1566844445.870,27.832,33.691,30.273,26.367,52.734,0
1566844445.874,22.949,17.578,28.809,30.762,59.570,0
1566844445.878,23.926,23.926,28.320,29.297,59.570,0
1566844445.882,24.902,29.785,31.250,31.250,51.270,0
1566844445.885,29.297,26.855,28.809,33.203,52.246,0
1566844445.889,34.668,30.273,25.391,28.809,55.176,0
1566844445.893,40.527,41.504,27.832,36.133,63.965,0
1566844445.897,45.410,42.969,27.832,41.016,66.895,0
1566844445.901,41.016,36.133,25.391,35.645,59.082,0
1566844445.905,39.551,31.738,23.438,34.180,55.664,0
1566844445.909,36.133,30.273,21.973,32.715,54.199,0
1566844445.913,36.621,37.598,24.414,36.133,66.895,0
1566844445.917,35.156,29.785,17.578,31.250,61.035,0
1566844445.921,35.156,25.879,13.672,26.855,42.480,0
1566844445.924,41.992,36.133,22.461,34.668,64.941,0
1566844445.928,44.434,34.668,26.855,39.062,69.336,0
1566844445.932,50.781,31.250,30.273,46.387,60.547,0
1566844445.936,45.410,35.645,32.227,47.363,41.992,0
1566844445.940,39.062,40.039,30.762,41.992,27.832,0
1566844445.944,37.598,30.762,33.691,42.480,65.430,0
1566844445.948,35.645,31.738,33.691,37.598,55.176,0
1566844445.952,40.527,30.273,31.250,37.598,21.484,0
1566844445.956,42.480,17.578,36.133,41.504,27.344,0
1566844445.960,28.809,21.973,36.621,33.203,31.250,0
1566844445.964,23.926,44.434,32.227,29.785,34.668,0
1566844445.967,30.273,48.340,36.621,30.762,43.457,0
1566844445.971,31.738,39.062,42.969,31.250,47.852,0
1566844445.975,30.273,33.203,42.480,32.227,48.340,0
1566844445.979,28.320,25.391,41.016,29.297,43.945,0
1566844445.983,32.715,31.738,42.969,29.297,40.039,0
1566844445.987,31.738,34.668,39.551,26.367,38.086,0
1566844445.991,32.715,34.668,41.504,28.320,43.945,0
1566844445.995,32.227,35.156,43.945,32.715,46.875,0
1566844445.999,27.832,21.973,41.504,28.320,33.691,0
1566844446.003,37.109,18.066,44.922,35.156,19.531,0
1566844446.007,42.480,31.738,45.898,40.527,24.414,0
1566844446.010,37.109,39.551,41.016,31.738,20.996,0
1566844446.014,32.715,41.016,40.039,32.227,25.391,0
1566844446.018,31.738,35.645,45.898,39.062,31.250,0
1566844446.022,37.109,40.039,45.898,37.109,27.832,0
1566844446.026,40.527,48.828,44.922,41.504,39.062,0
1566844446.030,36.621,24.414,44.434,39.062,58.594,0
1566844446.034,39.551,-0.488,41.504,35.645,66.406,0
1566844446.038,45.410,14.648,44.922,43.945,62.012,0
1566844446.042,44.922,40.039,45.898,47.852,57.617,0
1566844446.046,42.480,52.246,41.992,44.922,42.480,0
1566844446.049,41.016,47.363,42.969,40.039,43.945,0
1566844446.053,40.039,49.805,44.922,41.504,51.270,0
1566844446.057,41.016,48.340,42.480,37.598,49.316,0
1566844446.061,45.410,43.457,45.410,41.504,54.688,0
1566844446.065,44.922,43.457,46.387,43.945,45.410,0
1566844446.069,41.016,42.969,40.527,38.086,28.320,0
1566844446.073,47.363,54.199,48.828,47.363,35.156,0
1566844446.077,44.922,49.805,47.852,49.316,62.012,0
1566844446.081,39.062,27.832,40.039,40.527,36.133,0
1566844446.085,40.527,20.020,42.480,41.504,25.879,0
1566844446.089,44.922,28.320,42.480,43.457,53.223,0
1566844446.092,43.457,48.340,37.109,36.621,19.043,0
1566844446.096,33.203,45.898,31.738,30.762,2.441,0
1566844446.100,38.574,20.020,35.156,37.109,30.273,0
1566844446.104,36.621,26.855,36.133,38.574,33.203,0
1566844446.108,30.762,34.180,32.227,31.738,17.578,0
1566844446.112,32.227,41.504,32.227,28.809,15.137,0
1566844446.116,41.504,44.922,37.598,32.227,-0.977,0
1566844446.120,38.574,34.180,34.180,30.273,4.883,0
1566844446.124,38.086,26.855,37.109,32.227,31.738,0
1566844446.128,45.410,26.855,45.410,38.574,31.250,0
1566844446.132,36.133,26.367,41.016,37.109,19.043,0
1566844446.135,26.855,33.203,34.668,32.227,20.020,0
1566844446.139,31.250,51.758,37.598,39.062,32.715,0
1566844446.143,39.062,33.691,41.992,49.805,38.574,0
1566844446.147,38.086,9.277,38.574,48.828,22.949,0
1566844446.151,35.156,21.973,39.062,46.875,17.578,0
1566844446.155,37.598,39.062,41.992,51.758,26.367,0
1566844446.159,31.738,47.852,38.086,46.387,22.949,0
1566844446.163,30.762,30.273,38.086,46.387,22.949,0
1566844446.167,28.809,26.367,39.551,46.875,23.438,0
1566844446.171,29.785,26.367,40.039,45.410,41.016,0
1566844446.174,31.738,9.766,39.062,46.387,62.012,0
1566844446.178,30.762,24.414,38.574,44.434,26.367,0
1566844446.182,31.250,49.316,41.504,42.969,13.184,0
1566844446.186,25.391,45.898,40.039,41.504,27.832,0
1566844446.190,28.320,30.273,37.109,42.969,20.996,0
1566844446.194,37.598,27.344,44.434,50.293,43.945,0
1566844446.198,32.227,29.785,42.969,46.387,42.480,0
1566844446.202,30.273,26.367,39.062,39.551,20.020,0
1566844446.206,40.039,20.996,41.016,42.969,19.043,0
1566844446.210,43.457,26.367,39.062,42.480,29.785,0
1566844446.214,32.715,40.527,34.180,33.203,21.973,0
1566844446.217,33.691,41.504,34.180,32.227,23.926,0
1566844446.221,43.457,37.109,43.945,44.434,48.828,0
1566844446.225,41.016,32.715,45.898,40.039,104.492,0
1566844446.229,34.668,21.484,38.086,32.227,198.730,0
1566844446.233,33.691,19.043,38.574,34.668,319.824,0
1566844446.237,34.668,26.367,41.992,28.320,426.270,0
1566844446.241,37.598,34.180,38.574,25.879,507.812,0
1566844446.245,38.086,32.715,38.086,30.762,561.523,0
1566844446.249,41.016,20.996,44.434,30.273,529.297,0
1566844446.253,43.945,12.695,47.363,37.109,412.109,0
1566844446.257,40.039,24.902,43.945,41.504,237.793,0
1566844446.260,39.062,40.527,46.387,47.363,71.777,0
1566844446.264,34.668,38.574,49.316,55.176,-57.129,0
1566844446.268,33.691,25.391,48.340,51.270,-134.277,0
1566844446.272,40.527,25.879,49.805,50.293,-129.883,0
1566844446.276,31.250,39.062,46.387,45.410,-121.094,0
1566844446.280,29.785,30.762,46.387,44.434,-131.348,0
1566844446.284,41.504,27.344,49.805,48.340,-131.836,0
1566844446.288,30.762,35.645,45.410,39.551,-122.070,0
1566844446.292,27.832,16.602,45.898,37.598,-98.633,0
1566844446.296,28.320,21.484,45.410,40.039,-96.680,0
1566844446.299,32.227,44.434,44.434,42.480,-92.773,0
1566844446.303,42.969,40.527,44.922,42.969,-72.754,0
1566844446.307,41.504,26.855,45.410,39.551,-57.129,0
1566844446.311,39.062,20.020,47.852,39.062,-64.941,0
1566844446.315,34.180,30.762,42.480,31.250,-72.266,0
1566844446.319,24.902,30.762,38.086,26.367,-59.082,0
1566844446.323,31.250,27.832,43.457,34.668,-34.668,0
1566844446.327,30.762,45.410,42.969,29.297,-36.133,0
1566844446.331,32.227,46.387,41.504,25.391,-23.438,0
1566844446.335,35.645,35.156,41.504,27.344,-33.203,0
1566844446.339,31.738,33.203,40.527,22.949,-59.570,0
1566844446.342,28.809,53.223,41.992,21.973,-33.691,0
1566844446.346,28.320,50.293,44.922,25.391,-17.578,0
1566844446.350,29.785,36.621,43.457,24.414,-27.832,0
1566844446.354,29.785,20.996,37.598,21.973,-33.691,0
1566844446.358,31.738,20.508,36.133,21.973,-8.301,0
1566844446.362,33.691,40.527,41.016,23.438,-9.766,0
1566844446.366,27.344,41.016,40.527,23.438,-21.973,0
1566844446.370,29.785,37.109,39.551,25.391,-14.648,0
1566844446.374,38.574,42.480,40.527,32.715,-12.695,0
1566844446.378,37.109,34.668,41.016,37.598,-0.488,0
1566844446.382,34.180,18.066,38.574,35.156,-8.301,0
1566844446.385,36.133,31.250,38.086,36.621,-11.230,0
1566844446.389,41.504,33.691,40.039,40.039,3.418,0
1566844446.393,49.805,8.301,41.992,47.852,19.043,0
1566844446.397,53.223,20.508,40.039,49.805,23.438,0
1566844446.401,54.199,44.922,35.156,52.734,22.949,0
1566844446.405,56.152,48.340,35.645,58.594,32.715,0
1566844446.409,54.199,52.246,31.250,58.105,53.711,0
1566844446.413,59.570,53.711,29.297,60.059,71.289,0
1566844446.417,65.918,35.156,33.691,63.477,52.734,0
1566844446.421,68.359,25.391,33.203,64.453,46.387,0
1566844446.424,58.594,37.598,26.367,56.641,55.664,0
1566844446.428,54.688,42.969,22.461,58.105,56.152,0
1566844446.432,71.777,38.574,22.461,62.988,58.105,0
1566844446.436,71.289,22.461,21.973,59.082,66.406,0
1566844446.440,72.754,28.320,22.461,64.941,77.148,0
1566844446.444,78.613,39.062,19.531,68.848,82.520,0
1566844446.448,76.172,48.340,21.484,72.754,83.496,0
1566844446.452,78.125,51.758,21.484,77.148,84.961,0
1566844446.456,83.008,32.715,16.602,78.125,91.309,0
1566844446.460,86.426,18.555,21.973,86.426,100.098,0
1566844446.464,84.473,27.832,19.043,84.961,93.750,0
1566844446.467,86.426,36.133,12.695,79.590,88.379,0
1566844446.471,83.984,20.996,13.184,88.379,98.145,0
1566844446.475,89.355,20.020,16.113,99.609,107.422,0
1566844446.479,101.074,41.992,19.531,104.980,106.934,0
1566844446.483,98.633,46.387,10.254,103.027,103.027,0
1566844446.487,100.098,34.180,2.930,106.445,116.211,0
1566844446.491,104.980,29.785,7.324,112.793,125.977,0
1566844446.495,110.840,30.273,10.742,120.117,125.977,0
1566844446.499,113.770,30.762,10.742,124.023,129.883,0
1566844446.503,119.629,33.203,9.277,128.418,148.926,0
1566844446.507,114.258,36.133,3.418,124.512,151.855,0
1566844446.510,121.094,42.969,6.836,127.441,144.531,0
1566844446.514,132.812,39.062,9.277,133.301,151.855,0
1566844446.518,126.953,16.113,7.324,132.812,157.715,0
1566844446.522,132.324,25.391,6.348,133.789,162.109,0
1566844446.526,132.324,41.504,0.488,131.836,180.176,0
1566844446.530,131.348,38.086,2.930,131.836,168.457,0
1566844446.534,137.695,42.969,7.812,139.648,146.484,0
1566844446.538,136.230,41.992,10.254,142.090,169.922,0
1566844446.542,136.719,27.832,7.812,134.766,183.594,0
1566844446.546,140.625,22.461,7.324,134.766,149.414,0
1566844446.549,139.160,43.945,10.742,139.160,136.230,0
1566844446.553,133.301,53.711,5.371,134.766,155.762,0
1566844446.557,132.324,46.387,2.441,131.836,130.859,0
1566844446.561,133.301,38.086,4.883,134.766,136.230,0
1566844446.565,133.301,37.598,8.301,136.230,133.789,0
1566844446.569,134.277,41.992,7.324,132.812,126.953,0
1566844446.573,129.883,31.250,3.418,124.512,120.605,0
1566844446.577,121.582,35.645,1.465,119.629,112.793,0
1566844446.581,120.117,46.387,2.930,119.141,125.488,0
1566844446.585,123.047,41.992,5.859,118.652,120.117,0
1566844446.589,112.793,50.293,1.953,109.375,108.398,0
1566844446.592,110.840,45.898,3.418,104.492,96.191,0
1566844446.596,109.863,22.949,6.348,105.957,88.867,0
1566844446.600,106.445,37.598,7.324,103.027,95.215,0
1566844446.604,107.422,58.594,10.254,103.516,111.328,0
1566844446.608,106.445,59.570,11.230,101.074,112.793,0
1566844446.612,108.398,57.129,15.625,104.492,123.535,0
1566844446.616,99.121,60.547,16.602,98.145,109.863,0
1566844446.620,98.145,52.734,14.648,97.656,75.195,0
1566844446.624,95.215,37.598,16.602,104.980,83.008,0
1566844446.628,94.238,41.504,20.508,102.051,96.191,0
1566844446.632,95.215,41.992,22.461,99.609,92.773,0
1566844446.635,86.914,28.809,20.508,95.703,95.703,0
1566844446.639,86.914,23.438,22.949,95.703,103.027,0
1566844446.643,87.891,34.668,30.762,97.168,104.492,0
1566844446.647,87.402,46.387,32.715,98.633,101.562,0
1566844446.651,88.379,58.594,33.691,97.168,99.121,0
1566844446.655,86.426,40.527,34.180,94.238,97.656,0
1566844446.659,86.914,26.367,31.250,91.309,97.656,0
1566844446.663,77.637,48.340,27.832,82.520,100.586,0
1566844446.667,64.453,51.270,25.879,74.219,82.031,0
1566844446.671,66.895,38.574,25.391,71.289,79.102,0
1566844446.674,64.453,30.762,24.902,70.801,82.520,0
1566844446.678,57.617,50.293,20.508,64.941,87.891,0
1566844446.682,59.082,57.129,22.949,62.012,82.520,0
1566844446.686,62.988,38.086,27.344,64.941,59.570,0
1566844446.690,59.082,28.320,24.902,61.523,75.684,0
1566844446.694,51.758,40.039,20.996,57.617,69.336,0
1566844446.698,50.293,58.594,22.949,57.617,54.688,0
1566844446.702,46.875,62.012,21.973,49.805,51.270,0
1566844446.706,41.504,62.012,18.555,41.992,47.363,0
1566844446.710,43.457,65.918,16.602,42.480,58.594,0
1566844446.714,47.363,55.664,18.555,42.969,68.848,0
1566844446.717,47.852,43.457,22.949,43.945,44.434,0
1566844446.721,40.527,38.574,16.113,38.574,12.695,0
1566844446.725,41.016,34.180,18.066,38.086,36.621,0
1566844446.729,50.781,27.832,24.902,46.387,43.457,0
1566844446.733,59.082,31.738,28.809,47.852,13.184,0
1566844446.737,56.641,50.293,29.297,49.805,33.691,0
1566844446.741,48.828,46.387,20.996,46.387,49.805,0
1566844446.745,52.246,40.039,20.996,45.410,39.062,0
1566844446.749,56.152,52.734,29.297,50.293,37.598,0
1566844446.753,58.105,45.410,29.297,50.781,48.828,0
1566844446.757,58.105,40.039,28.320,49.316,57.617,0
1566844446.760,52.734,41.992,30.273,45.898,42.969,0
1566844446.764,52.246,36.133,29.297,45.898,46.875,0
1566844446.768,57.617,32.715,36.621,50.293,62.988,0
1566844446.772,52.734,50.293,35.645,50.781,48.340,0
1566844446.776,53.711,58.105,29.297,50.293,42.969,0
1566844446.780,53.223,50.293,27.832,42.969,40.039,0
1566844446.784,52.246,45.898,29.785,42.480,33.691,0
1566844446.788,55.176,34.668,33.691,49.805,54.199,0
1566844446.792,61.035,29.785,33.691,50.781,64.941,0
1566844446.796,61.523,23.926,32.715,48.828,59.082,0
1566844446.799,50.781,18.555,28.809,41.504,57.129,0
1566844446.803,48.828,41.992,26.855,36.621,61.523,0
1566844446.807,48.340,58.105,30.762,41.504,62.500,0
1566844446.811,46.387,49.316,29.297,39.551,54.199,0
1566844446.815,47.363,44.922,33.203,40.039,49.805,0
1566844446.819,42.480,35.645,38.086,42.480,52.246,0
1566844446.823,42.969,24.902,38.086,41.504,49.316,0
1566844446.827,38.574,31.738,34.668,34.180,16.602,0
1566844446.831,37.109,37.598,33.691,32.715,1.465,0
1566844446.835,40.039,39.551,34.668,38.574,23.438,0
1566844446.839,43.945,38.086,36.133,40.039,46.875,0
1566844446.842,37.109,30.762,30.273,31.250,41.016,0
1566844446.846,33.691,40.039,31.250,30.273,28.809,0
1566844446.850,41.016,38.086,42.969,42.480,30.273,0
1566844446.854,35.156,23.438,38.574,38.574,29.785,0
1566844446.858,31.738,28.320,32.715,31.738,26.367,0
1566844446.862,34.180,25.391,33.691,35.156,32.227,0
1566844446.866,32.715,32.715,33.691,36.621,26.367,0
1566844446.870,33.691,26.367,32.715,32.715,28.809,0
1566844446.874,27.344,1.953,31.738,28.320,50.781,0
1566844446.878,22.461,23.926,30.762,30.273,38.574,0
1566844446.882,18.555,53.711,28.320,24.414,-14.648,0
1566844446.885,18.555,41.016,28.320,22.949,-19.043,0
1566844446.889,33.691,22.949,30.762,36.133,19.043,0
1566844446.893,38.086,17.090,30.762,39.551,39.062,0
1566844446.897,35.156,39.551,35.645,40.527,20.020,0
1566844446.901,33.691,42.969,39.062,37.109,-0.488,0
1566844446.905,29.785,28.809,27.832,30.762,6.836,0
1566844446.909,26.367,47.852,24.902,33.691,10.742,0
1566844446.913,26.855,37.109,26.367,35.645,11.719,0
1566844446.917,32.227,26.855,23.438,30.273,22.461,0
1566844446.921,32.227,35.645,26.855,32.715,28.809,0
1566844446.924,38.574,42.969,31.250,39.551,10.254,0
1566844446.928,40.527,31.738,32.227,37.598,8.789,0
1566844446.932,35.645,20.996,32.227,33.203,32.715,0
1566844446.936,31.250,41.016,26.855,25.391,18.555,0
1566844446.940,27.832,53.223,24.902,23.438,9.277,0
1566844446.944,32.715,38.086,29.785,27.832,28.320,0
1566844446.948,34.180,34.668,30.273,26.855,30.762,0
1566844446.952,33.203,47.852,29.297,33.203,23.926,0
1566844446.956,35.645,41.016,29.297,35.645,37.109,0
1566844446.960,41.504,32.715,32.227,35.156,42.969,0
1566844446.964,50.293,35.156,38.574,43.457,33.203,0
1566844446.967,44.922,39.062,36.621,44.434,42.969,0
1566844446.971,33.203,48.828,29.297,40.527,27.832,0
1566844446.975,36.621,26.367,30.762,42.480,43.945,0
1566844446.979,42.969,11.719,36.621,44.434,55.664,0
1566844446.983,34.180,43.457,32.227,37.109,41.992,0
1566844446.987,33.691,40.527,31.250,37.598,29.785,0
1566844446.991,36.133,39.062,36.621,41.504,31.738,0
1566844446.995,36.133,37.109,37.598,44.434,22.461,0
1566844446.999,34.180,18.555,38.574,44.434,16.602,0
1566844447.003,31.250,33.203,39.551,43.457,13.184,0
1566844447.007,34.180,49.316,43.457,40.527,29.297,0
1566844447.010,27.344,41.992,40.039,37.598,37.598,0
1566844447.014,24.902,41.992,34.668,36.133,26.367,0
1566844447.018,21.973,45.410,34.668,29.297,44.434,0
1566844447.022,20.020,26.367,38.574,28.809,21.973,0
1566844447.026,23.438,36.133,41.016,32.715,13.672,0
1566844447.030,30.273,46.875,42.969,30.762,37.109,0
1566844447.034,31.250,36.621,41.992,25.391,38.086,0
1566844447.038,28.809,28.320,38.574,22.949,28.809,0
1566844447.042,28.320,18.066,36.133,23.926,11.719,0
1566844447.046,25.391,20.508,37.598,23.438,6.348,0
1566844447.049,25.391,35.645,41.504,22.949,12.207,0
1566844447.053,24.414,28.809,40.527,20.020,2.930,0
1566844447.057,24.902,22.949,39.062,14.160,29.785,0
1566844447.061,22.949,37.109,38.574,12.207,56.152,0
1566844447.065,22.949,38.574,42.969,13.672,68.848,0
1566844447.069,21.484,27.344,42.969,8.789,131.836,0
1566844447.073,20.020,17.578,48.340,8.301,253.906,0
1566844447.077,10.254,39.551,46.875,0.488,357.422,0
1566844447.081,5.371,56.152,41.504,-13.184,452.637,0
1566844447.085,4.883,46.875,47.852,-14.160,531.738,0
1566844447.089,-5.371,38.574,52.734,-16.113,532.715,0
1566844447.092,-17.578,43.945,51.758,-26.367,423.340,0
1566844447.096,-22.949,40.039,57.129,-31.250,235.840,0
1566844447.100,-28.809,44.922,70.312,-25.391,41.016,0
1566844447.104,-44.922,48.340,76.172,-35.156,-124.023,0
1566844447.108,-54.688,42.480,81.055,-47.363,-213.867,0
1566844447.112,-65.918,33.691,83.008,-56.641,-263.672,0
1566844447.116,-80.078,28.320,83.984,-73.730,-286.621,0
1566844447.120,-87.402,30.762,92.773,-79.102,-279.297,0
1566844447.124,-90.820,22.461,99.609,-83.008,-275.879,0
1566844447.128,-90.820,9.277,100.586,-91.309,-283.691,0
1566844447.132,-98.145,18.066,100.098,-93.750,-242.676,0
1566844447.135,-99.609,20.508,99.121,-93.262,-218.750,0
1566844447.139,-94.727,13.184,93.262,-95.215,-250.488,0
1566844447.143,-97.656,26.855,92.773,-94.238,-203.125,0
1566844447.147,-96.191,27.832,90.332,-87.891,-186.035,0
1566844447.151,-85.938,16.602,86.426,-81.543,-194.824,0
1566844447.155,-79.590,10.742,85.938,-72.754,-153.809,0
1566844447.159,-79.102,8.301,77.637,-71.289,-149.414,0
1566844447.163,-75.684,19.531,73.730,-70.801,-147.461,0
1566844447.167,-59.082,21.484,74.219,-57.617,-142.578,0
1566844447.171,-42.480,31.738,74.707,-46.387,-142.578,0
1566844447.174,-30.273,30.762,70.801,-38.574,-133.789,0
1566844447.178,-13.184,24.414,66.895,-23.926,-67.383,0
1566844447.182,-8.789,41.016,56.641,-17.578,-72.266,0
1566844447.186,-1.953,42.480,51.758,-7.324,-83.984,0
1566844447.190,10.742,15.137,48.340,6.836,-26.367,0
1566844447.194,20.508,21.484,39.062,16.113,8.301,0
1566844447.198,35.156,37.598,37.109,28.809,-13.672,0
1566844447.202,41.016,31.738,31.738,38.086,-27.832,0
1566844447.206,52.246,38.086,25.879,48.340,20.996,0
1566844447.210,72.754,38.574,23.926,58.594,50.781,0
1566844447.214,76.660,36.621,19.043,66.895,54.199,0
1566844447.217,79.102,33.203,16.602,76.172,67.383,0
1566844447.221,88.867,39.062,14.648,84.473,70.801,0
1566844447.225,97.168,37.598,13.672,92.285,78.125,0
1566844447.229,97.656,8.789,9.277,96.191,79.590,0
1566844447.233,103.027,-11.230,7.324,104.980,84.473,0
1566844447.237,106.445,14.648,5.371,107.422,72.266,0
1566844447.241,97.656,57.129,0.977,105.469,91.309,0
1566844447.245,96.191,50.781,4.395,109.375,87.402,0
1566844447.249,104.004,23.438,5.371,111.328,72.754,0
1566844447.253,107.422,33.691,6.348,116.211,92.285,0
1566844447.257,101.074,36.133,6.836,111.328,81.055,0
1566844447.260,96.191,30.762,5.371,107.422,80.078,0
1566844447.264,94.727,38.574,3.418,109.863,97.168,0
1566844447.268,98.633,37.109,4.395,110.352,102.539,0
1566844447.272,98.633,36.133,7.324,107.910,121.582,0
1566844447.276,89.844,35.645,5.859,103.516,110.352,0
1566844447.280,99.121,35.645,13.672,109.375,105.469,0
1566844447.284,103.516,34.668,15.137,110.352,119.141,0
1566844447.288,104.004,37.109,13.672,109.375,117.676,0
1566844447.292,100.098,29.785,13.184,105.957,145.996,0
1566844447.296,98.145,16.602,12.695,101.562,155.273,0
1566844447.299,100.586,23.926,16.602,98.633,79.102,0
1566844447.303,91.309,42.969,12.207,86.914,59.082,0
1566844447.307,89.355,48.828,10.254,79.590,78.125,0
1566844447.311,87.402,49.316,12.207,79.590,87.402,0
1566844447.315,88.867,45.410,13.184,80.078,99.121,0
1566844447.319,82.031,26.367,10.742,75.195,83.008,0
1566844447.323,72.754,37.109,5.371,63.965,92.773,0
1566844447.327,76.660,43.945,4.883,59.570,122.070,0
1566844447.331,73.242,42.480,7.812,57.617,94.238,0
1566844447.335,60.547,47.852,3.906,55.176,81.055,0
1566844447.339,57.129,45.898,5.371,53.223,96.191,0
1566844447.342,61.035,37.109,13.184,56.641,62.988,0
1566844447.346,63.477,22.461,16.113,58.105,92.773,0
1566844447.350,64.453,10.254,19.531,56.641,105.469,0
1566844447.354,61.523,32.227,22.949,59.082,64.941,0
1566844447.358,57.617,65.918,18.066,52.734,76.172,0
1566844447.362,57.129,58.105,17.090,52.246,77.148,0
1566844447.366,58.594,39.062,21.484,59.082,99.609,0
1566844447.370,59.082,41.504,21.973,55.664,90.332,0
1566844447.374,61.523,42.969,24.414,59.082,68.848,0
1566844447.378,58.105,30.273,26.367,60.059,84.473,0
1566844447.382,59.570,30.273,29.297,58.105,91.797,0
1566844447.385,56.641,36.133,27.832,55.664,99.609,0
1566844447.389,50.781,36.133,23.438,50.293,73.242,0
1566844447.393,49.805,42.480,26.855,48.340,40.527,0
1566844447.397,43.945,45.410,25.391,46.387,31.250,0
1566844447.401,44.922,40.527,25.879,50.293,61.523,0
1566844447.405,54.199,32.227,31.250,53.223,48.828,0
1566844447.409,48.828,34.180,32.227,49.805,14.648,0
1566844447.413,45.898,29.785,32.715,48.340,57.617,0
1566844447.417,54.199,33.691,36.621,51.758,62.988,0
1566844447.421,50.781,43.457,33.691,47.363,52.734,0
1566844447.424,49.805,30.762,28.320,45.898,70.801,0
1566844447.428,55.664,20.508,30.762,51.758,67.871,0
1566844447.432,49.805,24.414,29.785,51.270,51.758,0
1566844447.436,55.664,27.832,32.227,58.105,55.664,0
1566844447.440,67.871,39.062,37.598,65.430,53.223,0
1566844447.444,66.406,36.133,36.621,63.477,65.430,0
1566844447.448,61.523,30.762,31.738,59.570,60.547,0
1566844447.452,60.547,44.922,32.227,60.059,65.430,0
1566844447.456,64.453,43.945,34.668,60.547,72.266,0
1566844447.460,60.059,33.203,28.320,58.105,38.086,0
1566844447.464,61.035,26.855,29.297,62.500,32.227,0
1566844447.467,59.082,32.227,30.762,59.570,43.945,0
1566844447.471,56.641,38.086,30.273,52.734,41.504,0
1566844447.475,66.406,33.203,33.691,55.176,53.711,0
1566844447.479,59.570,28.809,32.227,49.805,53.711,0
1566844447.483,50.293,39.551,29.785,45.410,27.832,0
1566844447.487,52.246,46.387,31.250,47.852,52.734,0
1566844447.491,57.129,37.109,34.180,47.852,83.008,0
1566844447.495,55.176,28.809,28.809,44.434,92.773,0
1566844447.499,52.246,18.555,24.902,44.434,85.938,0
1566844447.503,48.340,36.133,27.344,42.969,90.820,0
1566844447.507,45.410,58.594,28.809,40.527,87.402,0
1566844447.510,43.945,48.340,30.273,44.434,52.734,0
1566844447.514,45.898,29.785,33.203,50.293,51.758,0
1566844447.518,47.852,27.344,32.715,49.316,54.199,0
1566844447.522,48.340,33.203,34.668,47.852,41.016,0
1566844447.526,43.945,32.227,37.109,48.340,65.430,0
1566844447.530,40.039,39.062,33.691,46.387,50.293,0
1566844447.534,39.551,37.598,34.180,42.969,51.758,0
1566844447.538,36.133,24.902,36.133,40.527,48.828,0
1566844447.542,34.180,20.020,33.691,40.527,24.902,0
1566844447.546,33.691,23.926,36.621,45.410,35.156,0
1566844447.549,33.691,40.039,38.574,44.434,50.293,0
1566844447.553,22.949,47.852,29.785,30.273,51.758,0
1566844447.557,26.855,41.992,34.180,35.156,55.664,0
1566844447.561,32.227,28.809,35.156,38.086,28.809,0
1566844447.565,29.297,29.297,30.762,32.715,-5.859,0
1566844447.569,36.621,25.879,35.156,37.109,43.457,0
1566844447.573,31.250,21.973,32.227,32.227,65.430,0
1566844447.577,26.367,39.551,30.273,29.297,6.836,0
1566844447.581,32.227,46.875,33.691,33.691,-34.668,0
1566844447.585,37.598,38.574,36.133,37.109,-22.461,0
1566844447.589,32.227,30.273,33.203,34.180,-13.184,0
1566844447.592,24.902,37.109,29.297,28.809,30.762,0
1566844447.596,27.344,44.434,30.273,27.832,34.668,0
1566844447.600,32.715,44.922,31.738,30.762,12.695,0
1566844447.604,31.250,39.062,32.715,29.785,27.344,0
1566844447.608,20.508,27.832,30.273,19.043,-18.555,0
1566844447.612,19.531,28.320,31.738,21.484,-46.387,0
1566844447.616,22.949,41.992,33.203,27.832,-25.879,0
1566844447.620,22.949,33.203,34.180,29.785,4.883,0
1566844447.624,20.996,17.578,37.109,30.762,7.812,0
1566844447.628,24.414,26.855,38.574,31.250,-0.977,0
1566844447.632,27.344,39.551,36.133,29.297,3.418,0
1566844447.635,28.809,39.062,38.086,30.762,3.906,0
1566844447.639,26.367,26.855,39.551,36.133,16.602,0
1566844447.643,23.926,32.227,42.480,37.109,20.508,0
1566844447.647,26.367,39.062,44.434,34.668,-0.977,0
1566844447.651,24.902,35.156,39.551,26.855,0.977,0
1566844447.655,23.926,47.363,39.062,25.391,16.602,0
1566844447.659,26.855,35.156,40.039,27.832,32.715,0
1566844447.663,21.973,27.832,36.133,23.438,23.438,0
1566844447.667,15.625,29.297,36.133,24.414,12.207,0
1566844447.671,20.508,15.137,41.992,27.344,13.184,0
1566844447.674,19.531,17.578,41.016,23.926,24.414,0
1566844447.678,18.555,30.273,39.062,25.879,27.832,0
1566844447.682,13.672,39.062,39.551,20.020,-8.301,0
1566844447.686,9.766,33.203,36.621,12.207,-24.414,0
1566844447.690,10.742,41.992,35.645,9.766,-2.930,0
1566844447.694,7.324,51.758,38.574,5.859,5.859,0
1566844447.698,1.465,48.828,35.645,1.465,-28.320,0
1566844447.702,4.883,41.504,36.133,1.465,-32.227,0
1566844447.706,10.742,25.391,42.969,2.441,20.996,0
1566844447.710,3.418,38.574,42.969,-1.953,55.664,0
1566844447.714,-0.488,43.457,46.387,-7.324,-19.531,0
1566844447.717,-10.254,47.852,48.340,-16.602,-25.391,0
1566844447.721,-15.137,59.570,52.246,-25.391,85.449,0
1566844447.725,-14.160,41.504,53.711,-34.668,198.730,0
1566844447.729,-22.949,33.691,51.270,-44.434,321.777,0
1566844447.733,-35.156,44.434,56.152,-51.758,380.371,0
1566844447.737,-38.086,45.898,58.105,-59.082,414.551,0
1566844447.741,-44.434,27.344,61.523,-69.336,438.477,0
1566844447.745,-50.293,25.879,71.777,-69.824,362.305,0
1566844447.749,-53.711,47.852,75.684,-66.895,187.988,0
1566844447.753,-61.035,54.199,73.242,-68.359,-20.020,0
1566844447.757,-68.848,54.688,71.777,-69.824,-164.551,0
1566844447.760,-76.172,50.781,71.289,-75.684,-259.277,0
1566844447.764,-70.312,30.273,79.102,-74.219,-295.410,0
1566844447.768,-71.777,20.996,80.078,-74.219,-281.738,0
1566844447.772,-72.266,31.250,73.242,-78.613,-289.551,0
1566844447.776,-69.336,40.527,69.824,-81.055,-269.043,0
1566844447.780,-66.406,40.527,68.848,-79.102,-252.441,0
1566844447.784,-65.918,41.992,69.824,-76.660,-248.535,0
1566844447.788,-64.941,40.527,69.824,-74.707,-219.238,0
1566844447.792,-61.035,26.367,71.777,-67.871,-181.152,0
1566844447.796,-61.523,21.973,70.312,-62.500,-159.180,0
1566844447.799,-57.129,30.273,65.918,-59.082,-148.926,0
1566844447.803,-44.922,45.410,69.336,-51.758,-133.301,0
1566844447.807,-37.109,28.320,71.289,-43.945,-112.793,0
1566844447.811,-33.691,20.508,66.895,-37.109,-110.352,0
1566844447.815,-29.297,37.109,64.941,-28.320,-113.281,0
1566844447.819,-26.855,29.297,61.035,-26.855,-107.422,0
1566844447.823,-22.949,25.391,61.035,-19.531,-86.914,0
1566844447.827,-14.648,42.480,61.523,-5.859,-64.453,0
1566844447.831,-7.812,40.527,56.152,-2.441,-67.383,0
1566844447.835,1.465,41.016,54.688,0.488,-63.965,0
1566844447.839,7.812,47.363,51.270,3.418,-51.270,0
1566844447.842,13.672,24.414,43.457,10.254,-30.762,0
1566844447.846,21.973,17.090,43.945,21.484,-19.043,0
1566844447.850,21.973,41.992,44.922,20.996,-26.855,0
1566844447.854,33.691,37.598,45.410,29.297,-7.812,0
1566844447.858,41.016,10.742,44.922,42.480,9.277,0
1566844447.862,47.363,14.648,46.875,50.781,9.766,0
1566844447.866,56.641,34.180,45.410,53.223,10.254,0
1566844447.870,61.523,31.738,38.086,55.664,25.391,0
1566844447.874,59.082,25.391,32.715,56.641,22.461,0
1566844447.878,63.965,30.273,32.227,56.641,27.832,0
1566844447.882,64.453,32.715,30.273,61.035,48.828,0
1566844447.885,59.570,35.645,28.809,60.547,44.922,0
1566844447.889,64.453,24.414,30.273,61.035,32.715,0
1566844447.893,65.430,17.090,28.809,58.594,18.555,0
1566844447.897,63.965,21.973,31.250,61.035,35.156,0
1566844447.901,57.617,21.973,34.668,62.500,43.457,0
1566844447.905,57.129,28.809,36.133,63.965,31.738,0
1566844447.909,59.082,37.109,35.156,66.406,38.086,0
1566844447.913,53.223,27.344,30.273,61.523,49.805,0
1566844447.917,53.223,19.043,31.250,61.523,56.152,0
1566844447.921,53.711,15.137,32.715,63.965,52.246,0
1566844447.924,48.828,15.625,31.250,58.594,57.129,0
1566844447.928,50.293,24.414,33.203,59.082,57.129,0
1566844447.932,42.969,37.598,31.250,58.105,41.016,0
1566844447.936,35.156,33.691,27.832,48.828,43.945,0
1566844447.940,40.039,25.879,31.250,48.828,50.781,0
1566844447.944,38.574,17.090,32.227,48.340,61.035,0
1566844447.948,33.203,14.160,29.785,38.574,46.387,0
1566844447.952,28.809,30.762,31.250,27.832,22.949,0
1566844447.956,17.090,45.410,29.297,18.555,33.203,0
1566844447.960,13.672,33.691,30.762,16.113,46.387,0
1566844447.964,14.648,20.996,34.180,16.602,30.762,0
1566844447.967,14.160,37.598,34.668,13.672,10.254,0
1566844447.971,13.184,34.180,38.086,8.789,15.137,0
1566844447.975,7.324,34.668,35.645,3.906,35.156,0
1566844447.979,3.418,30.762,33.203,0.977,31.250,0
1566844447.983,-2.441,26.855,31.250,-5.371,7.812,0
1566844447.987,0.000,47.363,36.133,-0.977,10.254,0
1566844447.991,5.859,57.617,41.016,2.441,26.855,0
1566844447.995,0.488,56.152,38.574,-0.488,32.715,0
1566844447.999,2.441,48.828,42.969,1.465,44.434,0
1566844448.003,15.137,40.527,47.852,7.324,24.902,0
1566844448.007,16.602,29.785,46.875,11.230,-4.395,0
1566844448.010,18.066,22.949,46.875,12.695,15.625,0
1566844448.014,19.531,19.043,46.387,17.090,32.715,0
1566844448.018,8.789,45.410,41.016,13.672,25.879,0
1566844448.022,7.812,57.129,35.156,9.766,24.414,0
1566844448.026,16.113,28.320,37.598,14.648,52.734,0
1566844448.030,31.250,19.531,43.457,24.902,67.871,0
1566844448.034,37.598,28.320,40.527,30.273,59.082,0
1566844448.038,33.691,30.762,40.039,36.133,57.617,0
1566844448.042,35.156,36.133,39.062,35.156,59.082,0
1566844448.046,38.574,43.457,39.062,35.156,64.941,0
1566844448.049,43.945,25.391,40.039,45.898,70.312,0
1566844448.053,56.152,14.160,41.504,57.129,83.008,0
1566844448.057,62.500,18.555,39.551,61.035,71.777,0
1566844448.061,57.129,28.809,29.297,56.152,55.664,0
1566844448.065,60.059,38.574,29.785,66.406,61.523,0
1566844448.069,67.383,35.645,33.203,75.195,63.965,0
1566844448.073,74.707,32.715,32.227,73.730,68.359,0
1566844448.077,80.078,39.062,30.273,76.172,77.148,0
1566844448.081,83.008,30.762,29.785,81.543,89.844,0
1566844448.085,79.590,24.902,30.762,82.031,85.449,0
1566844448.089,77.637,27.344,29.785,83.984,67.871,0
1566844448.092,79.590,30.273,31.738,86.914,65.430,0
1566844448.096,76.172,39.062,32.715,82.520,53.223,0
1566844448.100,78.125,43.457,33.203,80.078,50.293,0
1566844448.104,79.590,39.062,34.180,83.008,69.824,0
1566844448.108,79.102,36.133,38.086,85.449,78.613,0
1566844448.112,76.172,31.738,37.109,82.520,69.824,0
1566844448.116,73.242,29.297,37.109,80.078,66.895,0
1566844448.120,69.336,30.762,38.086,73.730,66.895,0
1566844448.124,76.172,36.621,38.086,78.125,78.613,0
1566844448.128,67.871,38.086,34.668,73.730,78.125,0
1566844448.132,53.223,35.156,34.668,62.012,62.988,0
1566844448.135,53.711,38.086,39.062,62.012,61.523,0
1566844448.139,49.805,33.203,37.598,56.641,50.781,0
1566844448.143,44.434,34.180,39.062,47.363,59.082,0
1566844448.147,41.016,39.551,40.039,42.480,66.895,0
1566844448.151,38.086,39.062,43.945,41.504,43.945,0
1566844448.155,32.715,41.504,45.410,34.180,28.320,0
1566844448.159,20.996,41.016,41.016,19.531,20.020,0
1566844448.163,15.137,38.086,39.551,13.184,22.461,0
1566844448.167,13.672,32.227,41.016,9.766,21.484,0
1566844448.171,16.602,19.043,48.340,14.160,17.578,0
1566844448.174,20.508,32.227,53.223,20.020,68.848,0
1566844448.178,4.883,31.250,42.969,8.301,41.016,0
1566844448.182,4.395,33.203,39.551,-0.977,-38.086,0
1566844448.186,16.113,49.805,44.922,3.418,-24.414,0
1566844448.190,12.207,44.434,43.457,5.859,-7.324,0
1566844448.194,14.160,40.527,42.969,5.371,21.484,0
1566844448.198,22.461,37.109,42.969,11.230,33.203,0
1566844448.202,22.949,32.715,44.922,12.695,9.766,0
1566844448.206,16.602,36.133,42.969,9.277,9.277,0
1566844448.210,20.508,44.434,41.992,11.230,18.555,0
1566844448.214,27.344,36.133,48.340,14.160,32.227,0
1566844448.217,24.902,34.668,44.922,8.789,21.484,0
1566844448.221,20.020,51.270,39.551,9.277,7.324,0
1566844448.225,28.809,48.340,44.922,20.996,31.250,0
1566844448.229,34.668,40.039,48.828,26.367,45.410,0
1566844448.233,32.227,35.156,44.922,21.973,37.598,0
1566844448.237,26.367,27.832,40.039,16.113,35.156,0
1566844448.241,20.508,27.344,40.039,14.648,32.227,0
1566844448.245,26.855,47.363,40.039,19.043,39.062,0
1566844448.249,31.738,62.012,41.504,22.949,47.363,0
1566844448.253,31.738,63.965,41.504,21.484,50.781,0
1566844448.257,24.414,53.223,36.133,17.578,51.270,0
1566844448.260,19.043,40.039,37.109,18.066,35.156,0
1566844448.264,29.297,31.738,41.992,20.996,17.578,0
1566844448.268,36.621,29.297,42.969,21.484,28.320,0
1566844448.272,34.668,34.180,41.992,23.438,39.551,0
1566844448.276,29.785,33.691,40.527,23.438,30.762,0
1566844448.280,25.879,33.203,37.109,20.020,11.230,0
1566844448.284,31.738,32.715,39.551,22.949,-5.859,0
1566844448.288,30.273,39.551,39.062,25.879,-9.277,0
1566844448.292,22.461,47.363,33.691,23.926,19.531,0
1566844448.296,20.996,41.016,29.785,24.902,32.715,0
1566844448.299,21.484,25.391,33.203,24.414,29.785,0
1566844448.303,24.902,25.391,37.598,19.531,23.438,0
1566844448.307,29.785,31.738,41.016,23.438,13.184,0
1566844448.311,30.762,41.992,47.363,28.809,16.113,0
1566844448.315,21.973,33.203,43.945,20.996,6.836,0
1566844448.319,19.043,14.648,42.480,21.973,1.953,0
1566844448.323,25.391,18.555,49.316,34.668,21.484,0
1566844448.327,20.020,25.879,45.410,31.250,4.395,0
1566844448.331,12.695,28.809,37.598,20.020,-4.395,0
1566844448.335,19.043,33.691,39.062,23.926,0.000,0
1566844448.339,18.555,29.297,39.062,27.832,-10.254,0
1566844448.342,18.066,37.598,41.992,26.367,8.789,0
1566844448.346,20.996,29.297,42.969,26.367,28.809,0
1566844448.350,25.391,5.371,43.457,30.762,14.648,0
1566844448.354,26.367,23.926,47.363,34.668,11.230,0
1566844448.358,24.902,42.480,44.922,32.715,20.020,0
1566844448.362,24.414,53.711,41.504,27.344,15.625,0
1566844448.366,31.738,50.293,43.945,30.762,17.090,0
1566844448.370,33.691,35.156,42.480,35.156,21.973,0
1566844448.374,26.855,37.598,38.574,29.785,17.578,0
1566844448.378,28.320,31.738,37.109,30.273,27.344,0
1566844448.382,26.367,24.902,36.621,31.250,44.922,0
1566844448.385,27.344,26.855,40.039,32.715,47.852,0
1566844448.389,35.645,27.832,42.969,33.203,48.828,0
1566844448.393,31.738,23.438,37.598,26.367,17.090,0
1566844448.397,29.785,35.645,35.645,24.414,4.395,0
1566844448.401,30.762,46.875,37.598,29.785,1.953,0
1566844448.405,32.715,28.320,34.668,31.738,6.836,0
1566844448.409,36.621,24.414,31.250,30.762,41.992,0
1566844448.413,35.645,35.156,29.297,25.879,47.852,0
1566844448.417,22.461,38.574,30.762,23.438,30.762,0
1566844448.421,20.996,37.109,36.621,23.438,33.203,0
1566844448.424,30.273,30.762,40.527,28.809,14.648,0
1566844448.428,28.320,28.320,40.039,35.645,19.531,0
1566844448.432,21.973,22.461,37.598,32.715,53.223,0
1566844448.436,19.531,25.391,38.574,29.297,11.230,0
1566844448.440,15.137,37.598,36.621,24.414,-8.301,0
1566844448.444,13.184,16.113,32.715,21.973,-0.977,0
1566844448.448,16.113,11.230,32.715,25.879,9.277,0
1566844448.452,13.184,28.320,34.668,26.855,9.766,0
1566844448.456,12.207,38.086,30.762,22.949,4.883,0
1566844448.460,14.648,42.969,23.926,19.043,31.738,0
1566844448.464,17.090,34.180,26.855,20.508,32.227,0
1566844448.467,23.926,38.574,30.762,25.879,7.324,0
1566844448.471,30.762,52.734,30.762,29.785,18.555,0
1566844448.475,34.180,38.574,27.832,29.785,51.270,0
1566844448.479,22.949,35.156,25.391,23.438,31.250,0
1566844448.483,14.648,52.734,25.391,19.043,-6.836,0
1566844448.487,30.762,50.293,26.855,26.855,5.371,0
1566844448.491,31.250,43.457,24.902,22.949,41.504,0
1566844448.495,24.902,43.457,20.996,18.066,47.852,0
1566844448.499,37.109,30.273,27.832,26.367,45.898,0
1566844448.503,33.691,25.879,28.320,23.926,61.035,0
1566844448.507,29.297,36.133,24.902,21.484,132.812,0
1566844448.510,43.945,44.434,31.250,32.227,250.488,0
1566844448.514,45.410,42.480,28.809,30.762,359.375,0
1566844448.518,43.457,39.551,22.949,23.926,466.309,0
1566844448.522,43.457,46.387,24.902,22.461,541.992,0
1566844448.526,42.480,41.504,27.832,23.438,565.430,0
1566844448.530,41.504,30.273,27.344,23.926,499.023,0
1566844448.534,34.668,41.992,27.344,21.484,346.680,0
1566844448.538,31.738,40.527,30.762,27.344,144.043,0
1566844448.542,32.227,21.973,33.203,31.738,-41.992,0
1566844448.546,29.297,17.090,37.109,29.297,-146.973,0
1566844448.549,24.414,25.391,39.062,29.297,-159.668,0
1566844448.553,19.043,20.508,35.156,26.367,-162.598,0
1566844448.557,20.508,18.066,37.109,25.879,-165.527,0
1566844448.561,17.578,24.414,36.621,23.438,-146.973,0
1566844448.565,13.672,29.785,34.180,21.484,-127.930,0
1566844448.569,10.742,45.898,28.809,19.043,-131.836,0
1566844448.573,12.207,45.898,30.762,23.926,-117.188,0
1566844448.577,22.461,36.133,38.574,35.645,-74.707,0
1566844448.581,20.996,29.297,37.109,34.180,-58.594,0
1566844448.585,13.672,26.855,35.156,32.227,-75.195,0
1566844448.589,20.020,28.809,39.551,37.109,-92.285,0
1566844448.592,21.973,39.551,38.574,36.133,-66.895,0
1566844448.596,26.367,43.945,39.551,37.109,-48.828,0
1566844448.600,27.832,31.250,40.527,35.156,-51.270,0
1566844448.604,25.391,32.715,37.598,30.273,-51.270,0
1566844448.608,27.344,35.156,37.109,29.297,-28.320,0
1566844448.612,36.133,22.949,36.133,29.297,-32.715,0
1566844448.616,39.551,24.414,32.715,28.320,-35.156,0
1566844448.620,35.156,35.156,30.762,31.250,-35.645,0
1566844448.624,34.180,41.504,34.180,27.832,-30.762,0
1566844448.628,30.762,38.574,31.738,17.090,-22.949,0
1566844448.632,33.691,35.156,27.344,14.648,-23.438,0
1566844448.635,41.016,35.645,33.691,24.414,9.766,0
1566844448.639,33.691,26.855,35.645,25.879,28.809,0
1566844448.643,30.273,29.785,34.180,20.508,-20.996,0
1566844448.647,29.785,44.922,31.250,15.137,-61.523,0
1566844448.651,27.832,44.434,31.738,15.625,-47.852,0
1566844448.655,33.691,40.527,38.086,27.344,0.488,0
1566844448.659,30.273,41.016,38.086,25.879,6.348,0
1566844448.663,26.855,36.133,30.273,19.531,-8.301,0
1566844448.667,22.949,41.016,29.785,17.578,-3.418,0
1566844448.671,19.531,43.457,29.297,14.160,-27.832,0
1566844448.674,20.996,35.156,30.762,15.625,-4.883,0
1566844448.678,22.461,37.598,34.668,17.578,2.441,0
1566844448.682,23.438,43.457,33.691,17.578,-8.301,0
1566844448.686,20.020,36.133,32.227,14.648,-18.555,0
1566844448.690,26.367,37.598,36.621,20.020,-11.230,0
1566844448.694,35.156,58.105,38.086,29.785,11.719,0
1566844448.698,26.855,41.504,27.344,20.020,-3.418,0
1566844448.702,20.020,26.367,24.902,10.254,6.348,0
1566844448.706,20.508,34.180,28.809,15.137,14.160,0
1566844448.710,17.578,43.945,27.832,17.090,15.625,0
1566844448.714,24.414,27.344,32.227,21.973,28.320,0
1566844448.717,20.020,6.836,29.785,23.926,39.062,0
1566844448.721,20.020,42.480,26.367,24.902,35.645,0
1566844448.725,29.297,77.637,30.273,27.832,30.762,0
1566844448.729,32.227,74.707,30.762,30.762,49.316,0
1566844448.733,34.180,51.270,26.855,29.785,46.875,0
1566844448.737,36.621,46.875,28.809,31.250,45.898,0
1566844448.741,33.203,49.316,27.832,32.227,66.406,0
1566844448.745,32.715,35.645,24.414,27.344,65.430,0
1566844448.749,35.156,40.039,29.297,29.297,47.852,0
1566844448.753,30.762,56.152,31.250,29.297,57.129,0
1566844448.757,37.598,50.781,33.203,33.203,70.801,0
1566844448.760,42.480,44.434,35.156,43.457,89.355,0
1566844448.764,44.434,41.992,33.691,45.410,87.891,0
1566844448.768,49.805,42.480,34.180,42.969,61.035,0
1566844448.772,49.316,48.340,34.668,42.969,63.965,0
1566844448.776,52.734,34.668,39.062,46.875,79.590,0
1566844448.780,52.246,31.250,37.109,44.922,83.984,0
1566844448.784,44.434,45.410,36.133,42.480,72.754,0
1566844448.788,43.457,29.297,38.574,41.504,90.332,0
1566844448.792,42.480,28.809,40.039,39.062,88.379,0
1566844448.796,44.922,44.434,41.992,42.480,60.547,0
1566844448.799,39.551,40.039,39.551,41.016,61.523,0
1566844448.803,33.203,41.504,36.133,39.062,41.992,0
1566844448.807,30.762,41.504,36.621,38.574,45.898,0
1566844448.811,30.273,45.410,39.062,35.645,67.871,0
1566844448.815,32.227,48.828,41.504,41.504,83.008,0
1566844448.819,28.809,39.551,39.551,41.016,84.961,0
1566844448.823,27.344,35.645,39.551,33.203,66.406,0
1566844448.827,31.738,31.738,43.457,43.945,36.621,0
1566844448.831,29.297,35.156,45.898,49.805,47.852,0
1566844448.835,30.273,38.574,45.898,47.852,60.547,0
1566844448.839,28.809,40.039,41.992,45.410,29.297,0
1566844448.842,30.273,41.016,41.992,45.410,44.922,0
1566844448.846,41.504,39.062,45.410,52.734,64.941,0
1566844448.850,37.109,38.574,45.410,50.781,37.109,0
1566844448.854,28.320,36.133,40.527,46.875,36.621,0
1566844448.858,33.203,13.184,40.039,49.316,20.996,0
1566844448.862,36.133,9.766,44.922,48.340,24.902,0
1566844448.866,35.156,38.086,43.945,49.316,90.820,0
1566844448.870,39.062,55.176,42.969,48.828,44.922,0
1566844448.874,36.621,52.246,45.898,46.875,-51.758,0
1566844448.878,36.621,44.434,45.898,49.316,-14.648,0
1566844448.882,45.410,36.133,47.363,49.805,47.363,0
1566844448.885,49.805,21.973,50.781,50.781,45.898,0
1566844448.889,47.852,32.715,46.875,51.758,31.738,0
1566844448.893,40.527,46.875,40.527,42.969,25.879,0
1566844448.897,33.691,37.598,38.574,41.504,19.531,0
1566844448.901,34.180,45.898,38.086,41.016,36.133,0
1566844448.905,39.551,60.059,42.480,39.062,68.848,0
1566844448.909,44.922,55.176,47.852,42.480,78.613,0
1566844448.913,42.969,36.621,50.781,49.316,95.703,0
1566844448.917,38.086,24.902,49.316,51.270,51.758,0
1566844448.921,40.039,32.715,46.875,47.363,37.598,0
1566844448.924,41.016,26.855,49.316,42.480,80.078,0
1566844448.928,36.133,26.855,40.039,33.691,44.922,0
1566844448.932,29.785,46.875,31.738,30.273,13.184,0
1566844448.936,31.738,49.805,39.551,36.621,58.594,0
1566844448.940,31.738,42.480,39.551,34.668,48.340,0
1566844448.944,33.203,37.598,37.109,32.715,17.578,0
1566844448.948,39.062,38.086,43.457,38.086,24.902,0
1566844448.952,42.480,41.504,44.922,39.062,33.691,0
1566844448.956,35.645,35.645,40.039,36.133,34.668,0
1566844448.960,32.715,30.273,40.039,32.715,29.297,0
1566844448.964,34.668,35.156,41.992,35.645,35.156,0
1566844448.967,41.992,32.227,44.922,46.875,80.566,0
1566844448.971,44.434,22.949,42.969,42.969,75.195,0
1566844448.975,40.039,31.250,39.062,38.086,53.223,0
1566844448.979,35.156,30.762,36.133,38.574,46.875,0
1566844448.983,42.480,27.344,37.598,41.504,55.664,0
1566844448.987,55.176,43.457,43.457,49.316,88.379,0
1566844448.991,51.270,51.270,40.527,46.875,57.129,0
1566844448.995,46.875,35.645,40.527,49.316,71.777,0
1566844448.999,42.480,30.762,35.156,43.945,83.984,0
1566844449.003,38.086,35.156,30.762,37.598,-5.371,0
1566844449.007,43.945,37.598,36.621,40.039,8.301,0
1566844449.010,46.387,42.480,40.527,41.016,74.707,0
1566844449.014,40.039,40.039,38.574,38.574,41.504,0
1566844449.018,37.109,43.457,33.203,33.691,3.418,0
1566844449.022,29.297,36.621,30.762,27.344,7.324,0
1566844449.026,28.320,35.645,35.645,28.320,43.457,0
1566844449.030,30.762,31.738,34.180,26.855,28.809,0
1566844449.034,30.762,6.836,32.715,21.973,-43.945,0
1566844449.038,28.320,20.508,32.227,21.484,-62.988,0
1566844449.042,22.949,50.781,32.715,22.461,9.277,0
1566844449.046,30.762,45.898,29.297,20.508,27.344,0
1566844449.049,25.879,41.016,24.902,17.578,-22.461,0
1566844449.053,25.391,51.270,34.668,28.320,1.953,0
1566844449.057,33.691,52.246,33.691,33.203,37.598,0
1566844449.061,23.438,51.758,26.855,22.461,18.555,0
1566844449.065,23.438,45.410,28.809,24.414,14.648,0
1566844449.069,33.203,32.227,35.645,36.621,-4.883,0
1566844449.073,33.203,28.809,41.504,38.574,6.348,0
1566844449.077,29.785,31.738,39.062,35.645,30.762,0
1566844449.081,30.273,29.297,38.574,34.668,14.648,0
1566844449.085,33.203,24.902,41.016,39.062,12.695,0
1566844449.089,29.297,33.203,37.109,33.691,35.156,0
1566844449.092,30.762,49.805,34.180,29.785,44.434,0
1566844449.096,35.645,48.340,35.156,34.180,45.898,0
1566844449.100,38.574,29.785,34.668,37.109,9.277,0
1566844449.104,37.598,25.879,37.598,37.598,54.688,0
1566844449.108,33.203,37.598,35.645,38.086,40.039,0
1566844449.112,41.504,44.922,29.785,37.109,-26.855,0
1566844449.116,39.062,39.551,28.320,34.180,-16.113,0
1566844449.120,36.621,37.109,30.273,38.086,3.906,0
1566844449.124,45.410,35.156,33.203,41.992,37.109,0
1566844449.128,47.852,33.203,35.156,46.875,49.316,0
1566844449.132,48.828,32.715,30.762,44.434,35.156,0
1566844449.135,50.781,28.809,31.250,42.969,22.949,0
1566844449.139,49.316,20.996,32.227,41.504,56.641,0
1566844449.143,49.316,39.551,32.715,38.574,68.848,0
1566844449.147,51.270,32.227,37.109,40.039,52.246,0
1566844449.151,51.270,23.438,36.621,37.598,141.602,0
1566844449.155,50.293,47.363,33.203,36.133,275.391,0
1566844449.159,37.109,55.176,24.902,26.367,359.863,0
1566844449.163,41.992,46.875,23.926,26.855,468.750,0
1566844449.167,58.105,47.363,34.180,39.062,566.406,0
1566844449.171,59.570,51.270,33.691,39.551,578.125,0
1566844449.174,58.105,46.387,27.832,40.039,558.594,0
1566844449.178,51.758,49.316,28.320,43.457,340.332,0
1566844449.182,46.875,40.039,29.785,47.363,90.820,0
1566844449.186,43.457,36.133,28.320,46.875,4.883,0
1566844449.190,42.480,36.133,29.785,44.434,-108.887,0
1566844449.194,36.133,21.973,31.738,43.945,-174.316,0
1566844449.198,28.320,29.785,28.809,34.180,-186.523,0
1566844449.202,33.691,42.480,33.203,38.086,-165.527,0
1566844449.206,40.527,47.852,40.039,44.434,-155.762,0
1566844449.210,38.574,52.734,38.086,37.598,-135.254,0
1566844449.214,37.109,36.621,38.086,41.016,-138.184,0
1566844449.217,31.250,24.902,36.133,37.598,-145.996,0
1566844449.221,39.062,37.598,33.691,32.227,-113.281,0
1566844449.225,44.434,42.969,37.109,35.645,-73.242,0
1566844449.229,31.738,22.461,36.621,35.156,-35.156,0
1566844449.233,30.273,23.926,36.621,30.762,-71.289,0
1566844449.237,32.227,42.969,35.645,28.320,-86.914,0
1566844449.241,36.621,36.621,34.668,31.250,-56.152,0
1566844449.245,39.551,40.527,39.062,37.109,-38.086,0
1566844449.249,36.621,33.203,42.480,39.551,-16.602,0
1566844449.253,42.969,27.832,43.945,38.574,2.930,0
1566844449.257,42.969,33.691,40.039,36.133,-24.902,0
1566844449.260,38.086,25.391,39.062,31.250,-37.109,0
1566844449.264,40.039,34.180,39.551,29.785,-26.855,0
1566844449.268,36.133,46.387,37.598,31.738,-39.062,0
1566844449.272,28.809,53.223,32.227,23.926,-31.738,0
1566844449.276,32.715,47.363,32.227,26.367,-2.930,0
1566844449.280,40.527,27.344,38.574,35.645,21.973,0
1566844449.284,37.598,24.414,37.598,37.109,24.902,0
1566844449.288,38.086,39.551,39.551,39.062,22.949,0
1566844449.292,33.691,45.898,37.109,35.645,-11.230,0
1566844449.296,28.320,33.691,31.738,31.738,-12.695,0
1566844449.299,29.785,39.062,37.109,37.109,21.484,0
1566844449.303,28.320,38.086,36.133,37.598,-20.020,0
1566844449.307,33.691,16.602,35.645,38.086,-2.930,0
1566844449.311,29.785,22.461,34.668,37.598,20.996,0
1566844449.315,24.902,41.992,31.738,35.156,-30.273,0
1566844449.319,28.320,34.668,36.133,40.039,-29.297,0
1566844449.323,22.461,40.039,34.668,37.598,64.941,0
1566844449.327,27.344,42.969,32.227,35.156,60.547,0
1566844449.331,32.715,31.250,32.715,36.133,-14.160,0
1566844449.335,26.367,45.898,27.832,33.691,-12.695,0
1566844449.339,25.391,49.805,27.344,29.785,10.254,0
1566844449.342,27.832,34.668,28.320,29.785,22.949,0
1566844449.346,34.180,38.086,27.832,35.156,0.488,0
1566844449.350,35.645,46.387,29.297,33.691,-15.625,0
1566844449.354,38.086,30.273,29.785,35.156,26.855,0
1566844449.358,42.480,25.391,35.156,36.621,13.672,0
1566844449.362,41.992,20.996,38.086,33.691,10.254,0
1566844449.366,42.480,24.414,35.156,26.855,3.906,0
1566844449.370,43.457,36.133,31.738,28.320,59.570,0
1566844449.374,36.621,34.180,28.320,24.902,85.449,0
1566844449.378,33.203,35.645,27.344,20.508,45.410,0
1566844449.382,40.527,7.324,33.691,28.320,58.105,0
1566844449.385,47.852,-8.789,39.062,33.691,61.523,0
1566844449.389,44.434,33.203,39.062,32.227,68.848,0
1566844449.393,35.645,46.875,34.180,27.832,16.113,0
1566844449.397,40.039,36.133,36.621,31.738,60.547,0
1566844449.401,38.086,27.344,40.527,35.645,90.820,0
1566844449.405,36.133,31.250,39.551,32.227,2.930,0
1566844449.409,40.527,44.922,33.203,29.297,33.203,0
1566844449.413,35.645,45.898,33.691,31.738,52.246,0
1566844449.417,31.738,41.992,36.621,29.785,65.918,0
1566844449.421,38.086,25.879,32.715,28.320,82.520,0
1566844449.424,40.527,25.879,33.203,29.785,27.832,0
1566844449.428,35.156,37.598,36.621,28.809,16.113,0
1566844449.432,35.645,41.016,37.109,29.785,47.363,0
1566844449.436,33.203,35.645,34.668,29.785,28.320,0
1566844449.440,29.297,29.785,35.156,32.227,41.504,0
1566844449.444,33.691,26.367,37.598,40.039,80.566,0
1566844449.448,39.062,30.273,39.062,41.992,70.312,0
1566844449.452,33.691,36.621,38.086,37.598,52.246,0
1566844449.456,34.668,50.293,37.598,37.109,84.961,0
1566844449.460,38.574,50.781,39.062,40.039,80.566,0
1566844449.464,39.062,36.621,38.086,37.598,29.297,0
1566844449.467,46.387,33.691,38.086,41.992,34.668,0
1566844449.471,47.363,18.555,37.598,44.922,39.062,0
1566844449.475,36.621,21.484,34.668,34.180,49.805,0
1566844449.479,40.039,23.926,37.109,31.738,100.098,0
1566844449.483,41.016,17.090,42.480,30.762,49.316,0
1566844449.487,27.344,41.016,40.527,29.785,19.043,0
1566844449.491,32.715,53.711,39.551,36.621,62.988,0
1566844449.495,41.992,47.363,38.086,40.527,43.457,0
1566844449.499,35.156,49.316,36.621,40.527,25.879,0
1566844449.503,29.785,50.781,38.574,42.480,28.320,0
1566844449.507,25.879,55.176,42.480,46.875,41.504,0
1566844449.510,28.320,47.852,44.922,54.199,56.641,0
1566844449.514,35.645,41.992,42.969,50.293,30.273,0
1566844449.518,33.691,38.574,41.504,49.805,40.039,0
1566844449.522,29.297,23.926,40.039,52.734,58.105,0
1566844449.526,30.273,25.391,41.992,48.828,7.812,0
1566844449.530,25.879,29.297,43.945,50.293,-3.906,0
1566844449.534,33.691,27.832,45.898,54.199,59.570,0
1566844449.538,32.227,27.344,41.992,43.945,38.574,0
1566844449.542,23.926,15.137,37.598,42.480,-8.789,0
1566844449.546,24.414,20.020,40.039,44.434,9.277,0
1566844449.549,28.320,41.016,37.109,42.480,13.672,0
1566844449.553,28.320,46.387,35.645,44.434,5.859,0
1566844449.557,26.855,39.062,35.645,42.969,41.016,0
1566844449.561,26.367,37.109,31.250,39.062,66.406,0
1566844449.565,29.785,42.969,33.203,39.551,33.203,0
1566844449.569,29.297,48.828,33.691,39.062,21.484,0
1566844449.573,24.414,39.062,31.250,42.480,32.715,0
1566844449.577,31.250,25.391,34.180,50.781,95.703,0
1566844449.581,35.156,19.043,36.621,41.016,63.965,0
1566844449.585,34.180,2.930,38.574,38.574,0.488,0
1566844449.589,39.551,3.418,39.551,43.945,37.109,0
1566844449.592,41.016,41.016,37.109,41.992,80.078,0
1566844449.596,30.273,60.059,29.785,31.250,25.391,0
1566844449.600,23.438,60.059,28.320,26.855,4.883,0
1566844449.604,26.367,67.871,29.297,31.738,18.066,0
1566844449.608,34.180,63.965,34.180,38.574,28.809,0
1566844449.612,41.016,54.199,35.156,38.574,50.293,0
1566844449.616,33.691,41.504,27.832,34.668,62.988,0
1566844449.620,26.367,35.645,26.367,29.785,33.203,0
1566844449.624,29.297,40.527,26.367,30.762,29.785,0
1566844449.628,30.762,44.434,29.297,40.527,62.012,0
1566844449.632,32.715,37.598,33.203,41.016,43.945,0
1566844449.635,29.785,38.574,31.738,40.039,24.414,0
1566844449.639,26.855,40.039,28.809,36.621,36.621,0
1566844449.643,30.273,35.156,34.180,39.551,38.574,0
1566844449.647,28.320,33.203,33.691,40.039,34.180,0
1566844449.651,29.297,36.621,34.668,40.527,39.062,0
1566844449.655,34.668,50.293,43.457,51.758,51.758,0
1566844449.659,23.926,44.922,41.016,45.898,40.527,0
1566844449.663,16.113,33.691,35.156,37.109,33.203,0
1566844449.667,21.973,40.039,40.527,38.086,29.297,0
1566844449.671,18.555,40.527,40.039,41.504,15.137,0
1566844449.674,22.949,33.691,33.691,42.480,24.902,0
1566844449.678,26.855,21.484,33.691,39.551,28.809,0
1566844449.682,21.973,28.320,32.715,37.109,43.457,0
1566844449.686,17.578,48.828,27.832,31.250,49.316,1
1566844449.690,16.113,43.457,23.926,28.320,35.156,0
1566844449.694,21.484,38.574,28.320,31.250,44.434,0
1566844449.698,23.926,45.410,31.250,25.391,42.480,0
1566844449.702,36.133,47.852,36.621,26.855,34.180,0
1566844449.706,37.598,23.926,36.133,25.879,9.277,0
1566844449.710,24.414,23.926,27.832,23.438,-12.207,0
1566844449.714,23.438,43.457,29.785,27.832,28.809,0
1566844449.717,27.832,51.758,33.691,22.949,22.461,0
1566844449.721,24.902,61.523,27.832,21.484,-9.277,0
1566844449.725,25.879,44.434,25.391,27.344,23.438,0
1566844449.729,29.785,42.480,30.762,34.180,35.645,0
1566844449.733,25.879,55.176,32.715,31.250,26.855,0
1566844449.737,30.273,36.133,33.203,28.809,37.109,0
1566844449.741,36.621,31.250,35.156,38.574,31.738,0
1566844449.745,40.527,41.504,37.598,44.434,30.273,0
1566844449.749,37.598,45.898,35.156,40.039,34.668,0
1566844449.753,32.715,50.293,34.180,39.062,20.508,0
1566844449.757,40.527,45.410,35.645,42.969,35.645,0
1566844449.760,37.109,37.109,33.691,46.387,40.039,0
1566844449.764,29.785,36.133,31.250,48.828,22.949,0
1566844449.768,37.598,42.969,31.250,49.316,13.184,0
1566844449.772,38.086,31.250,30.762,44.922,17.578,0
1566844449.776,32.227,32.715,26.367,41.504,22.949,0
1566844449.780,32.715,55.664,28.320,49.316,13.184,0
1566844449.784,38.086,56.641,31.250,58.594,20.996,0
1566844449.788,40.039,54.199,33.691,53.223,19.531,0
1566844449.792,40.039,55.664,37.109,47.363,16.113,0
1566844449.796,45.410,52.246,37.109,47.852,20.508,0
1566844449.799,38.086,39.062,34.668,38.086,12.207,0
1566844449.803,43.457,37.598,35.645,38.086,11.719,0
1566844449.807,56.641,58.105,39.062,47.363,13.672,0
1566844449.811,41.992,49.316,35.156,38.574,4.883,0
1566844449.815,28.809,33.691,26.855,20.508,0.488,0
1566844449.819,30.762,41.992,25.391,13.672,-7.324,0
1566844449.823,35.645,47.852,31.738,25.879,9.277,0
1566844449.827,30.762,55.664,31.738,31.250,18.066,0
1566844449.831,29.297,61.523,29.785,24.414,16.602,0
1566844449.835,34.180,66.406,28.320,19.043,38.086,0
1566844449.839,33.203,71.777,26.855,21.484,29.785,0
1566844449.842,36.621,66.406,27.832,32.227,3.906,0
1566844449.846,38.086,52.734,32.227,31.250,-1.953,0
1566844449.850,36.133,51.270,35.156,25.391,-3.906,0
1566844449.854,38.086,45.410,33.691,34.668,-12.695,0
1566844449.858,38.086,46.875,33.203,40.039,6.836,0
1566844449.862,31.250,56.641,32.715,40.527,30.273,0
1566844449.866,38.574,62.500,37.598,48.828,33.691,0
1566844449.870,47.852,49.316,41.992,53.223,45.898,0
1566844449.874,50.293,42.480,38.574,56.152,50.293,0
1566844449.878,46.875,50.293,35.156,49.316,31.250,0
1566844449.882,37.109,33.203,35.156,41.016,35.156,0
1566844449.885,34.668,28.809,34.180,46.387,39.551,0
1566844449.889,34.180,50.781,34.180,42.480,23.926,0
1566844449.893,29.785,58.105,34.180,30.273,25.391,0
1566844449.897,26.855,50.293,33.203,26.367,32.715,0
1566844449.901,25.879,30.273,33.691,33.691,23.438,0
1566844449.905,37.598,42.480,33.691,34.668,29.297,0
1566844449.909,37.598,71.777,31.250,29.297,47.852,0
1566844449.913,28.320,78.613,31.250,31.738,44.434,0
1566844449.917,29.297,69.336,27.832,22.461,28.320,0
1566844449.921,26.367,57.617,26.855,14.648,6.348,0
1566844449.924,30.273,64.453,29.297,19.531,-1.465,0
1566844449.928,35.645,61.523,27.344,11.719,-2.930,0
1566844449.932,28.809,53.223,24.414,-1.953,-10.742,0
1566844449.936,32.227,53.223,24.902,4.883,-5.371,0
1566844449.940,28.320,50.293,23.438,9.277,3.906,0
1566844449.944,21.973,45.410,25.879,10.254,23.438,0
1566844449.948,21.484,40.527,27.344,10.254,20.508,0
1566844449.952,16.113,46.387,25.391,4.883,3.418,0
1566844449.956,16.113,49.316,25.391,2.930,38.574,0
1566844449.960,25.391,47.363,25.879,6.348,129.883,0
1566844449.964,30.273,60.059,27.344,13.184,218.750,0
1566844449.967,27.832,63.477,27.344,19.531,335.938,0
1566844449.971,31.250,57.617,20.508,11.230,462.402,0
1566844449.975,33.691,58.594,19.531,7.324,517.578,0
1566844449.979,34.180,42.969,28.809,22.461,524.414,0
1566844449.983,35.156,33.691,28.320,28.809,455.566,0
1566844449.987,37.598,42.480,23.926,30.273,263.672,0
1566844449.991,30.762,47.363,25.391,38.086,39.062,0
1566844449.995,21.973,49.316,25.391,33.691,-102.051,0
1566844449.999,24.902,49.805,25.391,37.598,-163.086,0
1566844450.003,22.461,38.574,27.832,34.180,-180.664,0
1566844450.007,23.926,44.922,28.809,23.926,-179.199,0
1566844450.010,32.715,61.523,29.297,34.180,-145.020,0
1566844450.014,36.133,62.500,24.902,30.762,-131.836,0
1566844450.018,33.691,59.570,20.996,19.043,-140.137,0
1566844450.022,26.855,59.570,19.043,14.160,-124.512,0
1566844450.026,25.391,60.059,20.996,19.043,-108.887,0
1566844450.030,25.879,53.223,22.461,24.902,-113.770,0
1566844450.034,24.902,43.457,19.531,21.484,-87.402,0
1566844450.038,29.785,50.293,17.578,12.695,-77.637,0
1566844450.042,30.273,57.617,19.531,4.395,-88.867,0
1566844450.046,22.949,60.059,23.926,10.742,-80.566,0
1566844450.049,16.602,74.707,27.344,14.648,-60.059,0
1566844450.053,15.137,67.383,24.902,4.883,-52.734,0
1566844450.057,18.066,42.969,21.484,3.906,-72.754,0
1566844450.061,24.902,47.852,23.438,4.883,-56.641,0
1566844450.065,21.484,57.617,23.438,-0.488,-46.387,0
1566844450.069,20.996,61.523,20.508,1.953,-56.641,0
1566844450.073,20.508,61.523,17.578,5.859,-47.852,0
1566844450.077,15.625,54.199,18.555,6.836,-41.992,0
1566844450.081,17.090,60.059,20.996,12.207,-58.105,0
1566844450.085,23.926,53.711,18.555,6.348,-60.547,0
1566844450.089,25.391,50.293,18.555,4.395,-49.805,0
1566844450.092,20.508,58.594,20.508,6.836,-32.227,0
1566844450.096,21.484,62.012,23.926,9.277,-18.066,0
1566844450.100,20.996,57.617,22.949,10.742,-29.785,0
1566844450.104,28.320,40.039,19.531,19.043,-34.180,0
1566844450.108,20.508,38.574,21.484,19.043,-32.715,0
1566844450.112,17.578,44.434,20.508,14.160,-27.832,0
1566844450.116,28.320,31.738,19.043,19.531,-28.320,0
1566844450.120,23.438,23.438,20.508,18.066,-25.391,0
1566844450.124,22.949,38.086,18.555,14.648,-13.672,0
1566844450.128,26.367,47.852,17.090,13.184,-19.531,0
1566844450.132,19.043,61.035,12.695,4.395,-34.668,0
1566844450.135,20.996,64.941,13.184,11.719,-34.668,0
1566844450.139,23.438,56.641,14.648,15.137,-24.414,0
1566844450.143,25.391,58.105,12.695,7.812,-8.789,0
1566844450.147,32.715,41.504,20.020,11.230,-11.230,0
1566844450.151,29.785,38.574,23.438,12.695,-22.461,0
1566844450.155,27.344,59.082,19.043,14.160,-33.203,0
1566844450.159,23.438,46.875,16.602,7.812,-41.016,0
1566844450.163,23.926,37.109,21.973,7.812,-18.555,0
1566844450.167,16.113,44.922,19.043,8.301,-10.742,0
1566844450.171,6.836,51.270,15.625,7.324,-8.789,0
1566844450.174,18.066,52.734,19.531,9.766,19.531,0
1566844450.178,23.438,46.387,22.949,1.953,17.578,0
1566844450.182,16.602,37.109,28.809,6.836,21.484,0
1566844450.186,14.648,34.180,27.344,5.371,26.367,0
1566844450.190,12.695,40.039,20.996,0.000,18.555,0
1566844450.194,15.137,56.152,20.508,11.230,34.180,0
1566844450.198,25.879,47.852,25.391,9.766,30.273,0
1566844450.202,31.738,37.598,24.414,6.836,38.574,0
1566844450.206,22.949,56.641,23.926,7.812,39.551,0
1566844450.210,26.855,48.828,24.414,1.465,48.828,0
1566844450.214,37.109,30.273,26.367,8.789,67.383,0
1566844450.217,34.180,56.152,24.902,19.043,42.480,0
1566844450.221,31.738,60.547,19.043,14.648,20.020,0
1566844450.225,33.691,56.152,17.578,5.859,24.414,0
1566844450.229,35.156,46.387,15.137,7.812,28.809,0
1566844450.233,28.809,39.551,14.160,10.254,8.301,0
1566844450.237,32.715,43.457,21.973,16.113,28.809,0
1566844450.241,39.062,51.270,19.531,14.648,51.270,0
1566844450.245,42.969,61.523,13.184,13.184,48.828,0
1566844450.249,46.875,63.965,14.648,11.230,37.598,0
1566844450.253,39.551,71.777,13.184,0.977,20.508,0
1566844450.257,41.504,59.570,18.555,9.277,34.668,0
1566844450.260,47.363,49.805,17.090,17.090,62.988,0
1566844450.264,33.691,51.758,7.324,2.441,53.711,0
1566844450.268,29.785,51.758,10.742,4.395,29.785,0
1566844450.272,38.086,46.387,13.184,13.184,29.785,0
1566844450.276,25.879,41.504,8.301,6.836,21.973,0
1566844450.280,14.648,37.109,4.395,4.883,13.184,0
1566844450.284,16.602,45.898,7.812,8.789,18.555,0
1566844450.288,25.879,42.969,14.648,20.020,12.695,0
1566844450.292,32.715,39.551,9.766,16.113,-19.043,0
1566844450.296,29.297,62.988,8.301,7.324,-49.805,0
1566844450.299,21.484,60.547,10.254,26.855,-30.273,0
1566844450.303,13.184,30.273,13.672,29.297,-13.184,0
1566844450.307,18.066,44.434,18.555,18.066,-22.461,0
1566844450.311,37.109,55.176,21.484,20.996,4.883,0
1566844450.315,24.414,43.945,20.996,6.836,21.484,0
1566844450.319,0.000,53.223,14.648,-9.277,-10.254,0
1566844450.323,-2.441,55.664,11.230,-12.207,-28.809,0
1566844450.327,12.695,59.570,21.484,-3.906,-35.156,0
1566844450.331,22.949,69.336,27.832,5.859,-27.832,0
1566844450.335,19.531,59.570,19.043,-4.395,-12.207,0
1566844450.339,20.020,50.781,18.555,-13.184,-9.766,0
1566844450.342,48.340,46.875,25.391,1.465,16.602,0
1566844450.346,51.270,48.340,26.367,18.555,17.578,0
1566844450.350,34.668,57.617,26.367,17.090,1.953,0
1566844450.354,35.645,58.594,29.785,21.484,-3.418,0
1566844450.358,36.133,66.895,27.832,34.180,-6.836,0
1566844450.362,38.574,65.430,28.320,38.574,18.066,0
1566844450.366,42.969,60.059,27.344,23.438,20.020,0
1566844450.370,32.715,66.895,25.879,6.348,-1.953,0
1566844450.374,32.715,71.289,28.320,17.090,2.930,0
1566844450.378,48.340,66.406,29.297,34.668,18.555,0
1566844450.382,47.363,55.664,29.785,28.320,39.062,0
1566844450.385,42.480,54.688,25.391,19.531,41.504,0
1566844450.389,38.086,68.848,25.391,20.508,25.391,0
1566844450.393,41.016,71.289,37.109,29.785,54.688,0
1566844450.397,41.504,53.711,37.109,39.062,42.480,0
1566844450.401,35.645,40.039,27.344,37.109,10.742,0
1566844450.405,37.598,41.992,27.832,40.527,21.973,0
1566844450.409,41.016,48.828,30.273,37.109,40.039,0
1566844450.413,48.340,48.828,29.785,36.621,55.664,0
1566844450.417,47.363,39.062,30.273,40.039,68.848,0
1566844450.421,35.645,39.062,31.738,30.273,38.574,0
1566844450.424,35.645,15.137,33.203,35.645,16.602,0
1566844450.428,34.180,5.371,30.273,36.133,46.875,0
1566844450.432,38.574,41.504,27.344,23.926,32.227,0
1566844450.436,49.805,55.176,33.203,25.879,20.508,0
1566844450.440,40.527,56.152,36.621,37.598,60.059,0
1566844450.444,41.992,50.781,36.621,40.527,92.285,0
1566844450.448,42.969,43.945,29.297,20.020,89.844,0
1566844450.452,40.039,40.527,29.785,16.113,58.105,2
1566844450.456,40.527,37.109,33.203,29.297,30.273,0
1566844450.460,33.691,40.039,24.414,39.062,6.348,0
1566844450.464,39.062,40.527,24.902,35.156,17.578,0
1566844450.467,41.016,36.133,26.367,19.043,17.578,0
1566844450.471,29.785,34.668,23.926,12.695,8.789,0
1566844450.475,27.832,36.621,23.926,8.789,-21.973,0
1566844450.479,36.621,37.109,25.879,20.508,0.000,0
1566844450.483,41.016,41.016,28.320,30.762,14.160,0
1566844450.487,38.574,32.715,32.227,31.250,-5.859,0
1566844450.491,41.016,17.090,27.832,35.645,-13.184,0
1566844450.495,41.016,27.832,30.273,30.762,-25.879,0
1566844450.499,34.668,41.992,35.156,21.973,-2.441,0
1566844450.503,34.180,45.410,28.809,-2.441,-6.836,0
1566844450.507,41.992,38.574,28.809,-23.438,-11.719,0
1566844450.510,36.621,35.156,29.297,-16.602,-1.465,0
1566844450.514,32.227,34.668,30.273,8.301,-20.508,0
1566844450.518,42.969,30.762,30.762,22.461,-21.973,0
1566844450.522,33.691,31.738,30.273,15.625,-34.668,0
1566844450.526,22.949,30.762,31.738,14.648,-36.133,0
1566844450.530,14.648,27.344,33.691,16.602,-15.625,0
1566844450.534,5.859,18.555,32.715,25.879,-51.758,0
1566844450.538,38.086,20.508,35.156,36.133,-25.391,0
1566844450.542,54.199,32.715,31.738,28.320,24.414,0
1566844450.546,36.133,37.109,23.926,9.277,-4.395,0
1566844450.549,32.227,43.945,24.414,5.859,-9.277,0
1566844450.553,34.180,50.293,24.414,8.789,2.441,0
1566844450.557,31.250,47.852,23.926,13.672,-14.160,0
1566844450.561,30.273,41.992,27.344,31.738,-9.766,0
1566844450.565,32.715,39.551,29.297,34.180,-5.371,0
1566844450.569,35.645,35.156,27.344,27.832,-20.996,0
1566844450.573,28.320,33.203,23.926,20.996,-31.250,0
1566844450.577,35.645,33.203,23.926,11.230,-14.648,0
1566844450.581,44.434,41.504,27.344,15.625,18.066,0
1566844450.585,35.156,54.199,28.320,25.879,13.672,0
1566844450.589,35.645,42.969,29.785,36.621,3.418,0
1566844450.592,35.156,29.785,32.715,27.344,22.461,0
1566844450.596,34.180,48.340,29.297,6.836,24.414,0
1566844450.600,32.715,49.316,26.855,2.930,-14.648,0
1566844450.604,42.480,21.973,31.250,5.371,-20.508,0
1566844450.608,48.340,28.320,33.691,21.484,20.020,0
1566844450.612,42.480,41.504,34.668,52.246,24.414,0
1566844450.616,62.988,34.180,35.645,60.059,10.254,0
1566844450.620,62.988,30.273,29.297,38.086,-15.625,0
1566844450.624,27.832,26.855,23.926,11.230,-24.902,0
1566844450.628,30.273,27.832,27.344,17.578,21.484,0
1566844450.632,9.277,38.086,29.785,29.297,0.977,0
1566844450.635,-13.184,47.363,27.832,15.137,-45.410,0
1566844450.639,0.977,35.156,24.902,-1.953,-13.184,0
1566844450.643,16.602,39.551,22.461,-31.250,26.855,0
1566844450.647,22.461,41.504,23.926,-32.227,37.109,0
1566844450.651,21.484,35.156,22.949,1.465,21.484,0
1566844450.655,22.949,44.434,20.508,20.508,13.184,0
1566844450.659,37.598,46.875,24.414,26.367,52.734,0
1566844450.663,34.668,40.527,24.902,16.113,27.832,0
1566844450.667,32.715,47.852,20.996,9.277,-6.348,0
1566844450.671,40.039,36.133,25.879,12.695,4.395,0
1566844450.674,39.551,23.926,27.832,14.648,26.855,0
1566844450.678,34.180,40.527,21.973,11.230,18.066,0
1566844450.682,40.039,40.527,21.973,18.066,9.277,0
1566844450.686,50.293,35.156,23.438,32.715,72.754,0
1566844450.690,46.875,43.457,24.414,23.438,176.758,0
1566844450.694,51.758,43.457,25.879,13.184,313.477,0
1566844450.698,59.082,39.551,26.367,22.461,433.594,0
1566844450.702,57.617,39.551,29.785,29.785,515.137,0
1566844450.706,58.105,42.969,29.297,36.621,552.246,0
1566844450.710,56.152,55.664,30.273,36.621,516.602,0
1566844450.714,57.129,53.711,29.785,22.461,402.344,0
1566844450.717,55.664,31.738,34.180,24.414,212.891,0
1566844450.721,50.781,35.645,38.086,22.461,5.371,0
1566844450.725,51.270,44.434,32.715,-0.977,-122.559,0
1566844450.729,49.316,46.875,38.086,-8.301,-152.832,0
1566844450.733,51.758,48.340,38.574,-4.883,-142.578,0
1566844450.737,50.781,53.223,35.645,7.324,-141.113,0
1566844450.741,34.180,57.617,34.668,23.438,-171.875,0
1566844450.745,38.086,40.039,34.180,35.156,-171.387,0
1566844450.749,62.500,30.762,36.133,39.062,-145.508,0
1566844450.753,46.875,39.062,32.227,32.227,-124.023,0
1566844450.757,25.391,48.828,29.297,14.648,-104.004,0
1566844450.760,29.297,57.129,32.227,6.348,-127.441,0
1566844450.764,25.879,55.664,32.227,-0.977,-121.582,0
1566844450.768,39.551,54.199,32.227,-5.859,-57.129,0
1566844450.772,50.781,51.270,33.691,-3.418,-53.223,0
1566844450.776,36.133,47.363,34.668,7.324,-49.805,0
1566844450.780,36.621,43.945,39.551,29.297,-37.598,0
1566844450.784,38.086,53.223,35.156,25.879,-32.227,0
1566844450.788,44.922,52.246,32.715,10.742,-27.832,0
1566844450.792,53.223,34.180,41.504,16.602,-24.902,0
1566844450.796,47.852,35.156,40.039,25.879,8.301,0
1566844450.799,41.992,34.668,37.598,48.340,-2.930,0
1566844450.803,45.410,31.738,42.480,75.195,-13.184,0
1566844450.807,56.641,40.039,42.969,73.730,-19.043,0
1566844450.811,44.434,36.133,41.016,51.270,-58.105,0
1566844450.815,35.156,36.133,41.992,37.109,-32.715,0
1566844450.819,44.922,48.340,41.504,20.508,-17.090,0
1566844450.823,43.457,48.828,39.551,-2.930,-28.320,0
1566844450.827,55.664,47.852,39.062,-1.953,15.625,0
1566844450.831,59.082,50.781,37.598,13.672,27.832,0
1566844450.835,46.387,48.828,34.668,29.297,3.418,0
1566844450.839,44.434,43.945,35.645,41.992,17.090,0
1566844450.842,45.410,48.340,34.668,40.039,23.438,0
1566844450.846,54.199,48.340,35.156,33.691,22.949,0
1566844450.850,52.246,21.973,35.156,28.320,15.625,0
1566844450.854,50.781,26.855,38.086,48.340,28.320,0
1566844450.858,55.664,45.410,41.992,49.316,30.762,0
1566844450.862,56.152,36.621,39.551,28.809,31.738,0
1566844450.866,53.223,32.227,39.551,24.414,42.969,0
1566844450.870,49.805,45.898,41.016,34.668,36.133,0
1566844450.874,42.969,58.105,41.504,49.316,28.809,0
1566844450.878,46.387,54.688,39.551,44.922,21.973,0
1566844450.882,44.434,45.898,39.551,50.781,14.160,0
1566844450.885,48.340,40.039,41.016,42.969,34.180,0
1566844450.889,67.871,36.621,43.945,29.785,46.875,0
1566844450.893,52.734,35.645,45.410,36.133,62.012,0
1566844450.897,39.062,35.645,45.898,44.434,54.688,0
1566844450.901,45.898,30.762,48.340,61.523,47.852,0
1566844450.905,44.922,25.391,47.363,49.316,58.594,0
1566844450.909,53.223,29.297,47.363,40.039,52.734,0
1566844450.913,66.406,21.484,51.758,62.500,68.848,0
1566844450.917,59.570,14.160,56.152,89.844,101.562,0
1566844450.921,33.691,28.809,49.316,92.773,83.496,0
1566844450.924,31.250,45.898,43.945,70.801,65.918,0
1566844450.928,57.129,44.922,47.852,55.176,108.398,0
1566844450.932,62.988,36.133,49.805,64.453,102.539,0
1566844450.936,52.246,33.691,51.270,44.922,67.871,0
1566844450.940,44.434,23.926,54.688,13.184,86.426,0
1566844450.944,41.992,27.832,56.641,13.672,98.633,0
1566844450.948,48.828,15.625,54.688,21.484,87.402,0
1566844450.952,46.875,-0.488,52.246,19.043,89.844,0
1566844450.956,42.969,26.855,51.758,19.531,96.680,0
1566844450.960,41.504,46.875,51.758,39.062,113.770,0
1566844450.964,31.738,54.688,49.316,42.969,94.727,0
1566844450.967,31.738,45.898,48.340,43.945,78.125,0
1566844450.971,36.133,28.809,50.293,66.895,77.148,0
1566844450.975,36.621,25.391,54.199,71.777,72.266,0
1566844450.979,33.203,24.414,51.758,58.594,81.055,0
1566844450.983,32.715,26.855,48.828,55.664,101.074,0
1566844450.987,37.109,31.738,50.781,54.688,123.535,0
1566844450.991,51.758,31.738,49.316,62.500,115.234,0
1566844450.995,61.035,35.645,49.316,90.332,103.516,0
1566844450.999,34.180,33.203,53.223,103.027,79.590,0
1566844451.003,20.020,26.855,52.246,62.988,65.918,0
1566844451.007,36.621,27.344,49.316,34.668,96.191,0
1566844451.010,55.176,33.691,49.316,31.250,111.328,0
1566844451.014,43.945,37.109,48.340,33.691,98.633,0
1566844451.018,47.852,36.133,48.340,35.645,70.312,0
1566844451.022,53.711,35.156,48.340,28.809,66.895,0
1566844451.026,47.363,29.785,50.781,53.223,98.633,0
1566844451.030,52.734,31.250,50.781,74.707,119.141,0
1566844451.034,46.387,35.645,49.805,78.613,121.582,0
1566844451.038,54.688,40.039,52.246,64.453,107.422,0
1566844451.042,53.711,44.922,48.828,45.410,93.750,0
1566844451.046,49.316,43.457,47.363,76.172,130.371,0
1566844451.049,51.270,29.785,50.781,85.449,125.977,0
1566844451.053,39.551,29.297,48.340,63.477,103.027,0
1566844451.057,50.293,20.508,48.828,60.059,95.703,0
1566844451.061,55.664,16.602,48.340,50.293,98.633,0
1566844451.065,54.688,27.344,50.781,50.293,122.559,0
1566844451.069,65.430,16.113,54.199,60.059,98.145,0
1566844451.073,52.734,26.855,49.805,64.453,69.824,0
1566844451.077,40.527,50.293,43.457,66.895,80.566,0
1566844451.081,41.992,52.734,43.457,81.055,50.293,0
1566844451.085,37.598,41.016,45.410,96.680,36.621,0
1566844451.089,33.691,41.504,43.945,85.449,26.855,0
1566844451.092,28.320,39.062,47.852,89.355,16.602,0
1566844451.096,35.156,33.203,51.758,104.980,21.484,0
1566844451.100,39.551,30.762,50.781,91.797,2.441,0
1566844451.104,32.227,20.020,50.781,60.059,7.812,0
1566844451.108,40.039,30.762,47.852,45.410,19.531,0
1566844451.112,34.668,35.156,45.898,52.734,55.664,0
1566844451.116,29.785,33.203,47.852,51.270,80.566,0
1566844451.120,40.527,41.504,47.363,32.715,24.902,0
1566844451.124,33.691,34.180,47.363,18.555,22.949,0
1566844451.128,20.020,37.598,45.410,33.203,78.125,0
1566844451.132,25.879,39.062,42.969,26.855,89.844,0
1566844451.135,32.715,20.508,42.480,21.973,78.125,0
1566844451.139,32.715,22.461,46.875,6.348,29.785,0
1566844451.143,47.852,28.320,47.852,-28.320,49.805,0
1566844451.147,50.781,19.531,46.875,-22.949,80.078,0
1566844451.151,40.527,24.902,48.828,-20.020,30.762,0
1566844451.155,47.852,33.691,47.363,-55.176,38.086,0
1566844451.159,47.852,20.020,46.875,-64.453,71.777,0
1566844451.163,50.781,13.184,47.363,-38.574,77.637,0
1566844451.167,51.758,28.320,47.363,-14.160,56.152,0
1566844451.171,56.641,41.016,48.828,11.719,57.129,0
1566844451.174,60.547,34.180,47.852,37.598,42.480,0
1566844451.178,49.805,20.996,43.945,36.621,21.484,0
1566844451.182,48.340,33.203,42.480,23.438,30.762,0
1566844451.186,31.250,38.574,41.504,28.809,24.902,0
1566844451.190,31.250,27.832,40.527,35.645,14.648,0
1566844451.194,39.551,24.902,39.551,-2.441,-30.273,0
1566844451.198,28.809,31.738,42.969,-22.949,-20.996,0
1566844451.202,24.902,31.250,39.062,-20.508,36.621,0
1566844451.206,29.785,13.672,36.133,-35.645,25.391,0
1566844451.210,35.156,12.695,41.992,-39.062,20.020,0
1566844451.214,32.227,28.320,40.039,-43.457,41.992,0
1566844451.217,25.391,34.668,39.062,-33.691,23.438,0
1566844451.221,28.809,35.645,39.062,-9.766,13.184,0
1566844451.225,22.949,35.156,36.133,-3.418,-6.348,0
1566844451.229,20.508,35.156,37.109,0.488,-4.883,0
1566844451.233,23.438,28.320,39.062,3.906,-11.719,0
1566844451.237,14.648,21.484,36.133,16.602,-4.395,0
1566844451.241,16.113,28.320,36.133,31.738,26.367,0
1566844451.245,18.066,36.133,36.133,39.062,26.367,0
1566844451.249,15.625,24.414,36.621,49.805,27.832,0
1566844451.253,27.344,21.484,40.039,61.035,17.578,0
1566844451.257,34.668,33.691,43.945,54.199,0.977,0
1566844451.260,40.527,22.949,43.945,18.555,9.277,0
1566844451.264,26.855,9.277,41.504,1.953,19.531,0
1566844451.268,22.949,15.625,42.480,12.695,35.156,0
1566844451.272,42.480,11.719,35.156,22.949,23.926,0
1566844451.276,38.086,6.348,39.062,25.391,36.133,0
1566844451.280,20.996,24.902,50.781,32.227,55.176,0
1566844451.284,30.273,34.668,45.410,38.086,43.457,0
1566844451.288,34.180,37.109,40.527,31.250,56.152,0
1566844451.292,30.273,30.273,44.922,22.461,57.129,0
1566844451.296,38.086,19.043,47.852,29.785,32.227,0
1566844451.299,38.086,21.484,45.410,44.434,62.500,0
1566844451.303,31.250,30.273,44.922,44.922,48.340,0
1566844451.307,21.973,52.246,44.922,44.922,17.578,0
1566844451.311,23.438,61.035,44.434,39.062,63.477,0
1566844451.315,36.133,42.969,43.457,22.949,83.984,0
1566844451.319,44.434,44.922,44.434,14.648,102.539,0
1566844451.323,39.062,38.086,42.480,26.855,91.309,0
1566844451.327,35.156,28.809,39.551,33.203,94.238,0
1566844451.331,47.363,38.086,47.363,40.039,214.844,0
1566844451.335,49.316,37.598,47.363,41.504,352.051,0
1566844451.339,39.062,33.203,42.480,42.969,479.492,0
1566844451.342,39.062,23.926,40.039,41.992,586.914,0
1566844451.346,37.598,23.926,40.527,39.062,595.703,0
1566844451.350,42.480,27.832,45.898,47.852,574.219,0
1566844451.354,46.387,22.949,44.922,44.434,510.742,0
1566844451.358,47.852,9.766,46.875,54.199,290.039,0
1566844451.362,50.781,19.043,52.734,71.289,59.082,0
1566844451.366,47.852,37.109,50.293,56.641,-42.480,0
1566844451.370,43.457,44.434,47.852,49.805,-105.469,0
1566844451.374,39.062,43.945,48.340,65.430,-123.535,0
1566844451.378,33.691,41.504,47.852,78.613,-108.398,0
1566844451.382,45.898,38.086,49.316,83.496,-111.328,0
1566844451.385,43.945,35.156,51.758,73.242,-132.324,0
1566844451.389,29.785,25.391,46.387,42.480,-127.441,0
1566844451.393,39.551,23.438,44.434,20.996,-105.469,0
1566844451.397,25.391,29.297,45.898,22.949,-71.777,0
1566844451.401,26.855,21.484,45.898,33.691,-47.852,0
1566844451.405,36.621,18.066,46.387,33.691,-62.012,0
1566844451.409,29.785,24.902,44.922,32.715,-49.805,0
1566844451.413,33.203,30.762,43.945,38.086,-38.574,0
1566844451.417,38.574,42.969,41.992,42.480,-41.016,0
1566844451.421,44.434,35.156,39.551,38.574,-36.621,0
1566844451.424,41.992,26.855,39.551,38.086,-56.641,0
1566844451.428,15.625,41.016,38.574,47.363,-60.059,0
1566844451.432,3.906,3.906,39.062,60.547,-30.273,0
1566844451.436,18.066,-10.254,41.016,56.152,-24.414,0
1566844451.440,16.113,38.574,34.668,33.203,-28.809,0
1566844451.444,13.184,49.805,31.250,30.762,-13.672,0
1566844451.448,24.414,43.457,40.039,31.738,-6.836,0
1566844451.452,23.438,42.480,42.480,31.738,-22.949,0
1566844451.456,24.414,41.016,39.062,35.645,-17.578,0
1566844451.460,25.879,34.668,39.062,30.273,4.883,0
1566844451.464,20.996,32.227,37.109,21.973,4.395,0
1566844451.467,21.973,28.809,36.621,21.484,-6.348,0
1566844451.471,18.066,28.320,36.621,25.391,-29.297,0
1566844451.475,17.090,27.832,38.086,25.391,-38.086,0
1566844451.479,24.902,20.020,42.969,35.156,4.395,0
1566844451.483,26.367,27.344,43.457,40.039,7.324,0
1566844451.487,28.320,41.504,42.480,30.273,-3.418,0
1566844451.491,21.973,11.719,43.457,28.320,14.648,0
1566844451.495,26.367,-1.953,43.945,34.180,33.691,0
1566844451.499,27.344,12.695,41.992,30.762,10.254,0
1566844451.503,31.738,10.742,40.039,32.227,1.953,0
1566844451.507,41.504,13.184,40.527,33.203,26.367,0
1566844451.510,28.809,17.578,42.480,29.297,21.484,0
1566844451.514,29.297,20.508,43.457,38.574,30.273,0
1566844451.518,28.809,27.832,41.992,42.480,22.461,0
1566844451.522,11.230,15.625,41.992,37.109,0.488,0
1566844451.526,22.949,12.695,46.387,42.480,14.648,0
1566844451.530,28.320,26.855,50.293,36.621,39.551,0
1566844451.534,14.648,18.555,50.293,33.203,40.039,0
1566844451.538,17.090,16.113,47.852,34.668,33.691,0
1566844451.542,23.926,9.766,45.410,21.973,50.293,0
1566844451.546,25.391,7.812,44.922,21.973,51.270,0
1566844451.549,23.438,36.133,42.969,25.879,48.340,0
1566844451.553,21.973,39.062,41.016,29.785,54.199,0
1566844451.557,24.414,26.367,41.016,33.691,54.199,0
1566844451.561,29.785,22.461,38.086,31.738,52.734,0
1566844451.565,22.949,20.508,33.691,34.180,43.457,0
1566844451.569,23.926,22.949,33.691,36.133,50.781,0
1566844451.573,34.180,27.832,39.551,41.016,62.012,0
1566844451.577,35.645,29.785,39.551,40.039,61.035,0
1566844451.581,38.574,35.645,36.133,37.598,70.312,0
1566844451.585,33.691,41.992,36.133,42.969,80.078,0
1566844451.589,34.668,24.414,38.574,48.828,83.496,0
1566844451.592,41.992,18.555,39.551,49.805,76.660,0
1566844451.596,38.574,29.297,34.180,39.551,70.312,0
1566844451.600,34.668,27.832,29.297,39.551,77.148,0
1566844451.604,47.363,26.855,34.180,52.246,75.195,0
1566844451.608,54.199,23.926,39.062,57.129,90.332,0
1566844451.612,56.641,28.320,40.527,54.688,115.234,0
1566844451.616,55.664,35.156,41.016,50.781,105.957,0
1566844451.620,62.500,22.949,41.504,55.176,102.051,0
1566844451.624,71.289,21.973,44.922,66.406,118.652,0
1566844451.628,63.477,36.621,42.480,59.570,116.699,0
1566844451.632,60.059,38.086,41.016,54.688,118.652,0
1566844451.635,63.965,30.273,43.457,61.523,109.375,0
1566844451.639,68.848,25.879,45.898,66.406,95.215,0
1566844451.643,62.500,23.438,48.828,73.242,110.352,0
1566844451.647,53.223,16.113,45.410,60.059,100.098,0
1566844451.651,52.734,22.461,40.039,40.527,80.566,0
1566844451.655,60.547,40.527,42.480,45.410,82.520,0
1566844451.659,65.918,44.434,44.922,60.059,90.820,0
1566844451.663,55.664,38.574,42.480,58.594,93.262,0
1566844451.667,52.246,34.668,43.457,58.105,81.055,0
1566844451.671,46.387,35.156,43.457,57.129,69.336,0
1566844451.674,45.410,35.645,41.016,51.758,73.242,0
1566844451.678,44.434,36.133,38.086,50.293,65.918,0
1566844451.682,35.156,21.973,39.062,50.293,71.289,0
1566844451.686,35.156,14.648,39.062,50.293,69.336,0
1566844451.690,38.086,20.996,36.621,45.410,36.621,0
1566844451.694,41.016,30.762,40.039,46.875,34.668,0
1566844451.698,44.922,30.762,44.922,50.781,55.176,0
1566844451.702,40.527,25.879,42.969,46.387,54.199,0
1566844451.706,32.227,30.762,39.551,44.922,44.434,0
1566844451.710,38.574,29.297,39.551,51.270,45.898,0
1566844451.714,43.457,34.668,39.062,50.293,50.293,0
1566844451.717,46.875,30.762,37.109,50.293,59.082,0
1566844451.721,44.922,22.949,39.551,55.176,64.941,0
1566844451.725,46.387,31.250,40.039,51.758,53.223,0
1566844451.729,43.945,31.738,35.156,52.246,45.410,0
1566844451.733,29.297,19.531,38.086,52.734,48.340,0
1566844451.737,31.738,15.625,41.992,52.734,45.898,0
1566844451.741,35.156,12.207,36.621,45.898,52.246,0
1566844451.745,31.738,5.859,35.156,43.945,67.871,0
1566844451.749,37.598,32.227,40.039,51.270,78.613,0
1566844451.753,40.039,42.969,37.598,51.758,60.547,0
1566844451.757,41.016,20.020,34.180,46.387,50.293,0
1566844451.760,41.504,18.555,32.227,35.645,58.594,0
1566844451.764,39.062,32.715,32.715,38.574,62.012,0
1566844451.768,33.691,49.805,33.203,43.457,59.570,0
1566844451.772,35.645,42.480,33.203,41.504,58.594,0
1566844451.776,41.504,23.438,35.156,44.922,72.266,0
1566844451.780,45.898,21.973,33.691,41.992,76.660,0
1566844451.784,47.852,23.438,34.180,40.039,64.453,0
1566844451.788,41.016,25.879,33.203,41.016,52.734,0
1566844451.792,34.668,26.367,30.273,37.109,46.387,0
1566844451.796,38.086,35.156,30.762,37.598,55.664,0
1566844451.799,41.504,30.273,32.227,41.016,68.359,0
1566844451.803,41.992,18.066,33.203,39.062,60.059,0
1566844451.807,38.574,28.809,29.297,35.156,49.805,0
1566844451.811,24.902,35.156,26.367,34.180,48.340,0
1566844451.815,21.484,30.273,27.344,34.180,43.457,0
1566844451.819,24.902,35.645,24.414,31.738,30.273,0
1566844451.823,27.344,41.992,27.832,34.668,20.020,0
1566844451.827,31.250,20.020,31.250,31.738,31.738,0
1566844451.831,21.973,2.930,26.367,23.926,41.016,0
1566844451.835,17.578,22.461,24.414,34.668,19.043,0
1566844451.839,19.043,37.109,23.926,35.645,3.418,0
1566844451.842,18.066,29.785,26.367,41.992,17.090,0
1566844451.846,28.809,32.715,30.762,47.852,35.645,0
1566844451.850,27.344,41.016,30.762,34.668,23.438,0
1566844451.854,21.973,41.992,28.320,22.949,24.414,0
1566844451.858,20.996,20.020,27.344,13.672,35.156,0
1566844451.862,31.250,9.766,28.320,22.461,38.086,0
1566844451.866,38.574,25.879,24.902,34.668,38.086,0
1566844451.870,21.484,39.551,22.949,30.273,31.738,0
1566844451.874,11.230,48.340,26.855,25.879,34.668,0
1566844451.878,23.438,40.527,29.785,17.578,56.152,0
1566844451.882,36.133,39.551,27.832,12.207,83.008,0
1566844451.885,29.785,41.504,27.344,17.578,70.312,0
1566844451.889,24.902,33.203,29.297,21.973,47.852,0
1566844451.893,28.320,25.391,28.320,25.879,44.922,0
1566844451.897,27.832,26.855,27.344,25.391,57.617,0
1566844451.901,31.738,41.992,30.273,28.320,67.383,0
1566844451.905,34.668,38.086,37.109,42.969,57.617,0
1566844451.909,34.668,15.137,38.086,46.387,49.805,0
1566844451.913,39.062,14.648,38.574,42.480,55.176,0
1566844451.917,44.922,33.691,40.039,44.922,49.805,0
1566844451.921,41.504,40.527,40.039,49.805,47.852,0
1566844451.924,34.180,30.762,41.504,63.965,46.387,0
1566844451.928,32.715,26.855,44.922,55.176,52.734,0
1566844451.932,37.109,20.020,42.969,51.758,63.965,0
1566844451.936,30.273,27.344,41.504,54.688,43.945,0
1566844451.940,17.578,34.668,41.992,55.664,51.270,0
1566844451.944,14.160,26.855,45.410,70.801,59.082,0
1566844451.948,21.484,18.066,46.875,68.848,51.270,0
1566844451.952,24.414,8.789,42.969,46.387,46.875,0
1566844451.956,31.250,22.461,42.480,40.527,40.039,0
1566844451.960,33.691,25.879,42.969,36.133,25.391,0
1566844451.964,32.227,38.574,41.016,26.855,25.391,0
1566844451.967,34.180,40.039,40.527,25.879,38.086,0
1566844451.971,30.273,16.113,38.574,22.461,31.250,0
1566844451.975,32.715,33.203,39.551,32.715,28.809,0
1566844451.979,37.109,34.180,36.621,38.086,39.551,0
1566844451.983,38.574,27.344,36.621,35.645,33.691,0
1566844451.987,36.133,40.039,41.504,43.457,18.555,0
1566844451.991,41.992,49.805,40.527,48.340,14.160,0
1566844451.995,44.922,52.246,39.551,45.898,23.438,0
1566844451.999,37.109,41.016,38.086,44.434,18.555,0
1566844452.003,39.551,45.898,37.109,45.410,2.441,0
1566844452.007,46.875,49.316,39.551,49.316,4.883,0
1566844452.010,42.480,38.086,42.480,54.688,7.324,0
1566844452.014,40.527,41.504,41.504,57.129,12.207,0
1566844452.018,44.434,42.969,42.480,54.199,30.762,0
1566844452.022,41.992,35.645,42.480,48.828,41.504,0
1566844452.026,51.758,38.086,45.410,49.316,44.922,0
1566844452.030,59.570,52.246,47.363,50.781,58.594,0
1566844452.034,50.781,43.945,40.039,51.758,62.012,0
1566844452.038,49.805,12.695,41.992,54.688,70.801,0
1566844452.042,55.176,13.672,47.363,53.223,77.637,0
1566844452.046,57.129,35.645,43.945,48.340,63.477,0
1566844452.049,48.828,43.457,41.016,47.852,57.617,0
1566844452.053,44.434,41.016,40.527,48.340,59.082,0
1566844452.057,49.805,34.668,39.551,50.781,69.336,0
1566844452.061,43.457,32.227,37.598,43.457,62.988,0
1566844452.065,36.133,27.344,34.668,35.645,51.270,0
1566844452.069,37.109,42.969,35.645,40.039,60.059,0
1566844452.073,29.785,58.594,35.156,39.062,31.250,0
1566844452.077,27.832,52.734,32.715,37.598,7.324,0
1566844452.081,27.832,47.363,33.691,35.645,20.508,0
1566844452.085,22.949,43.457,31.250,32.715,12.695,0
1566844452.089,23.438,43.945,30.762,30.762,15.625,0
1566844452.092,25.391,50.781,33.691,29.297,32.715,0
1566844452.096,28.809,46.875,36.621,35.645,22.949,0
1566844452.100,31.738,31.250,38.574,40.527,13.672,0
1566844452.104,33.203,39.062,35.156,39.062,17.578,0
1566844452.108,32.227,45.898,30.273,32.715,21.484,0
1566844452.112,30.273,46.387,32.227,27.344,37.109,0
1566844452.116,35.156,47.363,34.180,35.156,45.410,0
1566844452.120,35.156,43.457,33.203,41.504,35.645,0
1566844452.124,39.062,35.645,32.227,38.086,34.180,0
1566844452.128,43.457,42.969,33.203,39.062,55.664,0
1566844452.132,36.621,44.434,33.691,40.039,70.312,0
1566844452.135,35.645,17.090,35.645,42.480,67.871,0
1566844452.139,33.203,20.508,33.691,37.109,36.621,0
1566844452.143,35.156,32.715,32.715,30.762,55.664,0
1566844452.147,40.039,33.691,37.598,36.133,153.809,0
1566844452.151,37.109,26.367,39.551,31.738,262.695,0
1566844452.155,34.180,20.996,38.086,28.809,387.207,0
1566844452.159,31.738,33.691,35.645,32.227,490.723,0
1566844452.163,35.645,42.480,34.180,29.297,549.805,0
1566844452.167,41.504,47.363,28.809,23.438,566.895,0
1566844452.171,44.922,41.992,31.250,27.344,490.723,0
1566844452.174,55.664,32.227,37.109,36.621,326.660,0
1566844452.178,58.105,23.438,35.645,32.715,125.488,0
1566844452.182,61.523,29.297,34.180,35.156,-41.992,0
1566844452.186,55.664,37.598,37.109,39.062,-137.695,0
1566844452.190,38.574,37.598,38.574,38.574,-171.875,0
1566844452.194,32.715,46.875,35.156,41.992,-145.508,0
1566844452.198,16.113,43.945,29.785,37.109,-143.066,0
1566844452.202,13.184,46.387,28.809,35.156,-139.160,0
1566844452.206,29.297,37.109,37.109,45.410,-105.469,0
1566844452.210,36.621,19.043,39.062,46.387,-86.914,0
1566844452.214,31.738,33.691,37.109,41.016,-75.195,0
1566844452.217,26.855,41.504,36.133,41.992,-65.430,0
1566844452.221,33.203,31.738,33.691,38.574,-68.359,0
1566844452.225,36.621,34.668,34.180,36.133,-70.801,0
1566844452.229,38.086,34.180,35.645,39.551,-51.270,0
1566844452.233,37.109,41.504,31.250,35.645,-38.574,0
1566844452.237,41.504,25.879,33.691,36.133,-35.156,0
1566844452.241,48.340,12.695,38.574,41.504,-25.391,0
1566844452.245,47.852,27.832,40.039,40.527,-25.391,0
1566844452.249,46.387,32.715,38.574,36.621,-24.414,0
1566844452.253,43.457,40.039,37.109,35.156,-29.785,0
1566844452.257,48.828,36.133,40.039,39.551,-25.879,0
1566844452.260,47.852,36.133,39.551,41.016,-5.859,0
1566844452.264,42.969,38.086,36.621,36.621,-3.418,0
1566844452.268,49.316,30.273,38.086,31.738,-2.930,0
1566844452.272,54.199,21.484,41.016,34.180,0.488,0
1566844452.276,52.246,20.508,40.527,34.668,-0.488,0
1566844452.280,48.340,27.832,41.992,38.086,7.324,0
1566844452.284,44.434,29.297,41.992,43.457,17.090,0
1566844452.288,40.527,30.762,39.551,35.645,-6.836,0
1566844452.292,40.039,25.879,39.551,38.086,-20.508,0
1566844452.296,47.363,20.996,41.992,46.875,22.461,0
1566844452.299,51.270,25.391,40.527,42.480,24.414,0
1566844452.303,45.410,24.414,35.645,41.016,2.930,0
1566844452.307,47.852,19.043,40.039,51.758,13.184,0
1566844452.311,52.734,24.414,43.457,52.734,21.973,0
1566844452.315,52.734,42.969,40.039,45.898,38.574,0
1566844452.319,56.152,37.109,42.480,50.781,43.457,0
1566844452.323,53.711,29.785,45.410,53.711,29.785,0
1566844452.327,49.805,34.180,44.434,54.688,32.227,0
1566844452.331,51.758,25.391,43.945,53.223,37.109,0
1566844452.335,41.504,16.113,44.434,47.363,35.645,0
1566844452.339,33.203,24.414,42.969,45.898,34.180,0
1566844452.342,40.039,28.809,41.016,46.387,45.898,0
1566844452.346,42.969,16.113,40.039,46.875,62.500,0
1566844452.350,38.574,10.254,41.504,46.387,52.246,0
1566844452.354,36.133,24.414,41.504,43.945,39.062,0
1566844452.358,40.527,33.691,39.062,41.992,45.410,0
1566844452.362,40.039,35.645,35.156,40.527,47.363,0
1566844452.366,36.133,39.551,33.691,41.016,54.688,0
1566844452.370,45.410,34.180,40.039,48.828,64.941,0
1566844452.374,47.363,33.203,45.410,51.270,61.523,0
1566844452.378,35.645,19.043,38.086,44.922,57.617,0
1566844452.382,33.691,4.395,34.668,40.039,59.082,0
1566844452.385,42.480,24.902,35.645,44.434,71.289,0
1566844452.389,43.945,35.156,34.180,43.945,74.707,0
1566844452.393,39.062,36.621,33.691,45.410,72.754,0
1566844452.397,44.922,31.250,37.598,50.293,76.172,0
1566844452.401,49.805,25.879,38.086,47.363,82.031,0
1566844452.405,43.457,30.273,37.109,47.852,84.961,0
1566844452.409,47.363,30.762,36.621,44.434,83.008,0
1566844452.413,48.340,37.109,33.691,41.016,80.566,0
1566844452.417,41.992,36.133,33.203,45.410,76.660,0
1566844452.421,38.574,29.297,29.785,38.574,67.871,0
1566844452.424,37.109,24.414,29.785,30.762,62.988,0
1566844452.428,42.969,18.555,32.715,37.598,69.824,0
1566844452.432,46.387,28.320,35.156,40.039,72.266,0
1566844452.436,39.062,39.062,34.668,36.621,65.918,0
1566844452.440,36.621,32.715,33.691,34.668,64.941,0
1566844452.444,37.109,25.879,36.133,35.156,67.871,0
1566844452.448,41.016,32.715,38.086,45.410,67.383,0
1566844452.452,38.086,28.809,37.598,45.898,59.082,0
1566844452.456,37.109,6.348,38.086,42.480,63.965,0
1566844452.460,34.180,18.555,37.598,41.016,74.707,0
1566844452.464,25.391,34.668,33.203,29.785,66.406,0
1566844452.467,28.809,31.738,34.180,31.738,62.988,0
1566844452.471,34.668,34.180,35.645,34.668,65.918,0
1566844452.475,28.809,38.086,33.203,26.367,45.410,0
1566844452.479,28.320,39.062,32.715,32.227,42.480,0
1566844452.483,33.203,29.297,32.715,35.156,43.457,0
1566844452.487,39.062,27.832,34.180,34.668,33.691,0
1566844452.491,38.574,32.715,36.621,40.039,37.598,0
1566844452.495,28.809,35.156,35.645,29.297,39.062,0
1566844452.499,29.785,34.668,34.180,26.855,34.668,0
1566844452.503,41.016,33.203,37.109,41.992,30.273,0
1566844452.507,39.551,24.902,39.062,42.969,32.715,0
1566844452.510,39.062,8.789,41.992,42.480,44.434,0
1566844452.514,37.109,20.020,41.504,41.992,41.992,0
1566844452.518,33.203,27.832,36.133,38.086,33.691,0
1566844452.522,29.785,26.855,37.109,36.621,25.879,0
1566844452.526,32.715,33.691,39.062,36.621,25.879,0
1566844452.530,33.203,42.480,36.621,27.832,31.250,0
1566844452.534,33.203,46.387,38.086,27.832,20.020,0
1566844452.538,37.109,36.621,40.039,34.180,15.625,0
1566844452.542,31.738,32.227,38.086,31.250,11.719,0
1566844452.546,31.738,16.602,37.598,37.598,11.719,0
1566844452.549,37.109,-9.277,41.504,46.387,32.227,0
1566844452.553,36.133,15.625,39.062,46.387,24.902,0
1566844452.557,41.016,45.410,35.645,43.945,15.137,0
1566844452.561,42.480,42.969,34.668,38.086,29.297,0
1566844452.565,44.922,25.391,36.133,35.645,60.547,0
1566844452.569,43.945,18.066,38.574,41.992,68.848,0
1566844452.573,42.969,31.738,35.156,42.480,49.316,0
1566844452.577,42.969,37.109,32.715,38.574,46.875,0
1566844452.581,41.992,38.086,35.156,43.457,57.129,0
1566844452.585,48.828,41.016,35.645,48.340,59.082,0
1566844452.589,42.480,46.387,31.250,38.574,50.781,0
1566844452.592,36.133,49.316,35.156,40.527,50.781,0
1566844452.596,48.828,18.066,38.086,44.434,68.848,0
1566844452.600,49.316,6.348,35.156,42.969,73.730,0
1566844452.604,39.062,23.438,31.738,44.434,58.594,0
1566844452.608,40.527,31.250,32.715,40.039,54.199,0
1566844452.612,40.039,26.855,32.715,41.016,60.547,0
1566844452.616,37.598,26.367,30.762,44.434,65.430,0
1566844452.620,33.203,45.898,30.273,46.875,67.871,0
1566844452.624,38.086,12.207,33.203,53.223,88.379,0
1566844452.628,46.875,-7.324,39.062,54.199,90.332,0
1566844452.632,39.551,36.621,35.156,43.945,70.801,0
1566844452.635,34.180,49.805,34.668,41.992,66.895,0
1566844452.639,39.062,49.805,41.016,49.316,68.359,0
1566844452.643,38.574,35.156,40.527,47.363,62.988,0
1566844452.647,31.250,35.156,32.227,41.016,53.223,0
1566844452.651,28.809,42.969,28.809,39.551,47.852,0
1566844452.655,33.203,32.715,30.273,38.574,33.691,0
1566844452.659,34.668,38.086,28.809,37.598,27.832,0
1566844452.663,30.762,41.992,31.250,41.016,49.805,0
1566844452.667,34.668,25.391,36.133,48.828,56.152,0
1566844452.671,40.527,24.902,38.086,56.641,36.133,0
1566844452.674,41.504,32.715,39.551,53.223,34.180,0
1566844452.678,48.828,33.691,41.016,48.828,40.039,0
1566844452.682,49.316,47.852,40.039,50.293,42.480,0
1566844452.686,44.434,50.293,38.574,49.805,42.969,0
1566844452.690,41.992,38.086,40.039,51.270,42.969,0
1566844452.694,40.527,35.645,43.457,53.711,23.926,0
1566844452.698,45.410,35.645,46.387,56.641,19.531,0
1566844452.702,45.410,27.832,45.898,54.199,22.461,0
1566844452.706,41.504,23.438,42.969,53.711,17.090,0
1566844452.710,38.086,23.438,41.016,55.176,23.438,0
1566844452.714,33.203,23.438,36.621,49.316,19.043,0
1566844452.717,37.109,19.531,41.504,52.246,27.832,0
1566844452.721,40.039,24.902,45.898,53.223,32.227,0
1566844452.725,38.086,37.598,42.969,44.434,33.203,0
1566844452.729,36.621,43.457,43.457,41.504,33.691,0
1566844452.733,33.203,20.996,41.016,41.504,11.230,0
1566844452.737,32.715,23.438,37.109,43.457,3.906,0
1566844452.741,34.668,48.340,34.668,42.480,10.742,0
1566844452.745,38.574,52.734,35.156,38.574,20.508,0
1566844452.749,35.645,41.504,31.738,35.156,28.320,0
1566844452.753,34.668,25.879,31.250,30.762,24.902,0
1566844452.757,34.180,21.973,36.621,30.762,35.645,0
1566844452.760,37.109,40.039,38.086,41.992,59.082,0
1566844452.764,34.668,47.363,36.133,37.598,66.895,0
1566844452.768,27.832,38.574,34.668,27.832,56.641,0
1566844452.772,21.484,38.574,32.227,30.273,34.180,0
1566844452.776,19.531,45.898,31.250,31.250,35.645,0
1566844452.780,21.484,48.340,35.645,36.133,50.781,0
1566844452.784,12.695,33.203,34.668,33.203,16.113,0
1566844452.788,13.184,15.137,33.691,24.902,-14.648,0
1566844452.792,21.484,19.043,32.715,21.484,-3.418,0
1566844452.796,26.367,36.133,33.203,31.250,21.484,0
1566844452.799,24.902,39.551,37.598,41.016,26.367,0
1566844452.803,22.461,40.527,37.109,39.551,18.555,0
1566844452.807,31.250,32.227,37.598,41.504,19.531,0
1566844452.811,27.344,34.668,34.668,34.668,7.324,0
1566844452.815,19.043,37.109,28.320,30.762,4.395,0
1566844452.819,21.484,24.414,30.273,38.086,21.973,0
1566844452.823,29.785,33.203,35.156,40.039,20.508,0
1566844452.827,36.133,34.180,33.691,41.016,16.602,0
1566844452.831,30.762,26.367,28.320,40.527,20.996,0
1566844452.835,33.691,31.250,29.785,35.156,26.367,0
1566844452.839,41.016,43.945,34.180,40.039,42.969,0
1566844452.842,40.527,50.293,37.598,44.922,47.852,0
1566844452.846,41.992,33.691,35.156,42.480,42.480,0
1566844452.850,47.852,25.391,33.691,47.363,42.969,0
1566844452.854,50.293,29.785,35.645,45.898,57.129,0
1566844452.858,43.457,33.203,26.855,34.180,57.617,0
1566844452.862,45.410,36.133,23.438,32.715,93.750,0
1566844452.866,56.641,49.316,28.320,43.457,202.148,0
1566844452.870,50.781,70.801,28.809,40.527,308.105,0
1566844452.874,41.992,42.969,19.531,32.227,424.316,0
1566844452.878,49.805,34.180,18.555,28.320,541.992,0
1566844452.882,55.176,48.828,25.391,29.785,577.637,0
1566844452.885,54.688,43.945,26.367,34.180,552.246,0
1566844452.889,50.293,40.527,24.902,32.715,444.824,0
1566844452.893,47.363,43.457,30.762,38.086,261.230,0
1566844452.897,41.992,50.293,31.738,43.457,62.500,0
1566844452.901,36.621,36.621,26.367,37.109,-93.750,0
1566844452.905,39.062,18.066,27.344,32.227,-155.273,0
1566844452.909,41.016,26.367,30.273,37.109,-145.020,0
1566844452.913,35.156,41.992,28.809,35.645,-148.926,0
1566844452.917,30.273,45.898,27.344,30.762,-167.480,0
1566844452.921,33.203,44.434,24.414,29.297,-157.227,0
1566844452.924,33.203,42.480,20.996,25.879,-135.254,0
1566844452.928,36.621,36.621,25.391,33.203,-110.352,0
1566844452.932,36.133,29.785,27.344,34.180,-95.215,0
1566844452.936,38.086,24.902,25.879,30.762,-80.078,0
1566844452.940,40.039,40.527,27.344,33.691,-66.406,0
1566844452.944,40.527,45.410,25.391,28.809,-62.500,0
1566844452.948,39.551,39.551,23.438,23.926,-66.406,0
1566844452.952,37.598,43.457,21.973,28.320,-69.824,0
1566844452.956,35.156,46.387,18.066,27.344,-67.383,0
1566844452.960,33.691,49.316,22.949,31.738,-38.574,0
1566844452.964,37.598,37.598,25.391,33.203,-27.832,0
1566844452.967,35.156,36.621,19.043,28.320,-55.176,0
1566844452.971,34.668,52.734,20.508,34.180,-55.176,0
1566844452.975,42.480,67.383,20.508,36.621,-31.738,0
1566844452.979,38.086,72.754,20.508,37.598,-26.367,0
1566844452.983,39.551,62.500,23.926,41.504,-12.695,0
1566844452.987,49.805,59.570,22.461,37.109,-2.441,0
1566844452.991,43.945,45.410,21.973,32.715,-13.672,0
1566844452.995,33.691,27.832,23.926,29.785,-18.066,0
1566844452.999,30.762,34.668,25.391,28.809,-8.789,0
1566844453.003,33.203,33.691,26.367,30.273,0.488,0
1566844453.007,27.832,32.715,23.438,26.855,-5.371,0
1566844453.010,25.391,49.316,23.438,23.926,-9.766,0
1566844453.014,34.668,35.645,29.297,30.762,0.000,0
1566844453.018,33.691,30.273,30.762,33.203,0.000,0
1566844453.022,30.273,49.805,32.227,32.227,-3.418,0
1566844453.026,34.668,40.527,31.250,29.297,0.488,0
1566844453.030,26.855,37.598,29.297,27.344,5.371,0
1566844453.034,22.949,40.527,29.785,27.344,9.277,0
1566844453.038,23.438,34.180,26.855,26.367,-6.836,0
1566844453.042,30.273,27.832,28.320,34.668,0.000,0
1566844453.046,30.762,37.109,28.809,37.598,15.137,0
1566844453.049,21.484,55.664,28.320,26.855,15.625,0
1566844453.053,22.949,49.805,28.320,19.531,-1.465,0
1566844453.057,26.367,26.367,25.879,20.996,-3.906,0
1566844453.061,22.461,22.461,27.344,24.902,14.160,0
1566844453.065,22.461,34.668,32.715,27.832,22.949,0
1566844453.069,21.484,29.785,28.320,23.438,26.367,0
1566844453.073,31.250,2.930,27.832,28.809,40.527,0
1566844453.077,31.250,20.996,27.344,27.832,34.668,0
1566844453.081,21.973,51.270,25.879,21.973,34.180,0
1566844453.085,20.508,40.039,27.832,20.996,42.480,0
1566844453.089,19.531,42.969,28.809,18.066,20.508,0
1566844453.092,19.531,48.340,26.855,15.137,10.254,0
1566844453.096,17.578,35.645,24.902,10.254,14.648,0
1566844453.100,18.066,33.691,23.926,4.395,27.832,0
1566844453.104,23.926,41.016,25.879,13.184,37.109,0
1566844453.108,31.250,38.086,31.250,19.043,39.551,0
1566844453.112,26.367,35.645,32.227,15.625,41.016,0
1566844453.116,28.809,32.715,32.227,20.508,52.734,0
1566844453.120,27.832,24.902,32.227,23.926,51.270,0
1566844453.124,33.691,30.273,34.668,27.344,55.176,0
1566844453.128,41.992,41.016,31.738,28.809,69.824,0
1566844453.132,21.973,45.410,23.438,20.508,51.758,0
1566844453.135,17.578,45.410,24.902,18.066,38.086,0
1566844453.139,24.902,40.039,27.832,28.809,50.781,0
1566844453.143,23.438,45.898,24.902,27.344,47.852,0
1566844453.147,20.020,47.363,28.320,21.973,44.922,0
1566844453.151,26.855,42.480,30.273,26.367,58.594,0
1566844453.155,37.598,40.527,29.785,31.738,66.895,0
1566844453.159,36.621,39.062,30.762,28.320,62.012,0
1566844453.163,34.668,37.109,27.344,25.879,64.941,0
1566844453.167,31.250,50.781,23.926,20.508,71.777,0
1566844453.171,24.414,45.410,24.902,18.066,56.152,0
1566844453.174,21.484,21.973,24.414,17.578,42.480,0
1566844453.178,28.809,39.062,21.484,20.508,57.129,0
1566844453.182,32.227,53.711,19.531,20.508,58.105,0
1566844453.186,32.227,50.781,17.090,16.602,48.340,0
1566844453.190,36.133,54.688,17.090,16.602,37.598,0
1566844453.194,35.156,45.410,19.531,20.508,25.391,0
1566844453.198,32.227,51.270,22.461,24.414,27.832,0
1566844453.202,34.180,58.105,22.461,26.367,26.855,0
1566844453.206,31.738,50.781,19.531,30.273,14.160,0
1566844453.210,39.062,54.199,20.508,36.133,35.645,0
1566844453.214,45.898,47.852,22.461,39.551,49.805,0
1566844453.217,42.969,39.551,20.020,36.133,31.738,0
1566844453.221,43.945,42.480,20.996,34.668,24.414,0
1566844453.225,40.039,42.480,25.879,37.109,26.367,0
1566844453.229,37.109,31.250,25.879,40.039,19.043,0
1566844453.233,41.992,24.414,22.949,36.133,9.277,0
1566844453.237,41.992,36.621,23.926,32.715,8.789,0
1566844453.241,40.527,56.152,25.879,37.109,13.672,0
1566844453.245,40.527,55.176,28.809,42.480,21.484,0
1566844453.249,41.016,45.410,29.785,38.086,28.320,0
1566844453.253,38.574,42.480,28.320,37.109,26.855,0
1566844453.257,37.109,48.340,28.320,39.551,26.855,0
1566844453.260,38.574,44.922,28.809,37.109,33.203,0
1566844453.264,29.297,30.762,27.832,34.180,33.203,0
1566844453.268,27.832,36.621,30.273,29.297,27.832,0
1566844453.272,40.039,47.363,32.715,31.738,24.414,0
1566844453.276,33.691,36.133,32.227,31.250,23.438,0
1566844453.280,24.414,19.531,31.738,25.391,27.832,0
1566844453.284,30.273,38.086,33.203,29.297,39.551,0
1566844453.288,26.367,48.828,33.691,30.762,30.762,0
1566844453.292,20.996,41.016,29.785,30.273,17.578,0
1566844453.296,19.531,43.945,28.320,24.414,13.184,0
1566844453.299,15.625,38.574,32.227,19.043,39.062,0
1566844453.303,17.578,36.621,30.762,25.391,36.133,0
1566844453.307,28.320,38.086,29.297,24.902,8.789,0
1566844453.311,27.832,36.133,26.855,17.578,15.137,0
1566844453.315,33.691,49.316,28.809,23.926,28.809,0
1566844453.319,35.645,48.340,30.273,26.367,37.598,0
1566844453.323,24.902,36.621,25.879,22.461,36.621,0
1566844453.327,40.039,37.109,32.227,36.621,56.641,0
1566844453.331,45.898,18.066,35.156,43.945,62.500,0
1566844453.335,36.621,5.371,36.133,42.969,51.270,0
1566844453.339,37.598,24.414,35.156,41.016,50.293,0
1566844453.342,40.039,46.387,33.203,40.039,51.758,0
1566844453.346,42.969,47.852,38.574,41.504,53.223,0
1566844453.350,39.062,57.617,38.086,32.715,52.734,0
1566844453.354,33.203,53.711,33.203,29.785,50.781,0
1566844453.358,37.598,29.297,33.691,35.645,49.316,0
1566844453.362,41.992,17.090,37.109,41.992,68.848,0
1566844453.366,42.480,20.996,38.086,43.945,76.660,0
1566844453.370,43.945,34.668,39.551,41.504,63.477,0
1566844453.374,41.504,37.109,41.016,41.016,57.617,0
1566844453.378,43.457,29.785,40.527,38.086,58.594,0
1566844453.382,46.875,48.340,41.016,33.691,60.547,0
1566844453.385,41.016,45.898,39.551,31.738,40.039,0
1566844453.389,32.227,15.625,41.992,33.691,23.926,0
1566844453.393,30.762,17.090,40.527,31.250,15.137,0
1566844453.397,34.668,35.645,34.668,28.809,19.531,0
1566844453.401,29.297,52.734,37.598,29.297,17.090,0
1566844453.405,32.227,34.180,41.504,35.645,9.277,0
1566844453.409,44.434,23.438,42.480,38.086,23.438,0
1566844453.413,34.180,41.504,40.527,32.715,31.738,0
1566844453.417,35.156,41.992,41.992,39.551,27.832,0
1566844453.421,39.551,44.434,46.387,45.410,20.996,0
1566844453.424,41.992,55.664,44.922,43.945,15.137,0
1566844453.428,46.875,41.504,42.480,45.410,20.996,0
1566844453.432,39.551,24.414,41.992,47.363,22.949,0
1566844453.436,42.480,22.949,39.551,49.805,28.320,0
1566844453.440,43.457,18.066,39.062,49.805,17.090,0
1566844453.444,50.781,22.461,41.992,51.270,13.184,0
1566844453.448,51.758,36.621,42.480,51.758,41.504,0
1566844453.452,47.363,49.316,40.527,51.270,33.691,0
1566844453.456,50.781,53.223,40.039,55.176,20.996,0
1566844453.460,43.945,43.945,39.551,47.852,35.645,0
1566844453.464,42.969,43.457,40.527,45.898,34.668,0
1566844453.467,39.062,34.668,36.621,45.410,20.020,0
1566844453.471,40.527,23.438,34.180,43.945,27.344,0
1566844453.475,46.875,45.898,34.668,42.480,28.320,0
1566844453.479,41.016,56.641,32.227,41.504,19.043,0
1566844453.483,40.527,32.227,35.156,40.527,23.926,0
1566844453.487,49.805,36.133,37.598,35.156,30.273,0
1566844453.491,54.199,45.898,35.645,40.527,46.875,0
1566844453.495,50.781,39.551,36.621,43.457,54.688,0
1566844453.499,34.668,37.598,39.062,41.016,46.875,0
1566844453.503,24.902,35.645,35.156,39.062,42.969,0
1566844453.507,16.602,31.250,29.297,31.738,31.250,0
1566844453.510,11.230,32.227,29.297,31.738,44.922,0
1566844453.514,23.926,42.969,39.062,50.293,40.039,0
1566844453.518,39.062,36.133,42.480,59.082,26.367,0
1566844453.522,33.691,26.855,35.645,42.480,33.203,0
1566844453.526,21.484,40.039,33.203,27.344,22.949,0
1566844453.530,14.648,36.621,32.715,20.020,22.461,0
1566844453.534,7.324,21.973,29.785,12.695,28.320,0
1566844453.538,14.160,26.855,31.250,9.277,28.809,0
1566844453.542,22.949,22.461,38.574,14.160,39.062,0
1566844453.546,22.461,20.508,40.039,15.625,55.664,0
1566844453.549,20.996,27.344,35.645,13.184,43.945,0
1566844453.553,23.926,22.461,37.109,24.414,32.227,0
1566844453.557,23.438,28.320,39.551,25.879,30.762,0
1566844453.561,27.832,31.250,39.062,18.555,32.715,0
1566844453.565,29.785,18.555,38.574,24.902,27.344,0
1566844453.569,22.461,35.645,40.039,30.762,13.672,0
1566844453.573,26.367,43.945,40.039,33.691,24.414,0
1566844453.577,37.109,25.391,38.086,41.504,36.621,0
1566844453.581,34.180,17.090,37.598,35.156,36.133,0
1566844453.585,27.832,14.160,40.039,32.715,40.039,0
1566844453.589,24.414,20.996,39.062,38.574,51.758,0
1566844453.592,16.113,36.133,34.180,32.715,106.445,0
1566844453.596,20.996,39.062,33.203,24.902,225.098,0
1566844453.600,35.645,45.410,35.156,26.367,359.375,0
1566844453.604,31.250,36.133,33.203,25.391,466.797,0
1566844453.608,31.738,18.555,32.715,20.020,548.340,0
1566844453.612,35.645,22.461,34.180,15.625,595.703,0
1566844453.616,30.273,35.645,34.180,12.695,537.598,0
1566844453.620,31.250,42.969,37.109,13.672,385.254,0
1566844453.624,31.738,38.086,39.062,22.949,195.801,0
1566844453.628,31.738,40.039,40.039,29.785,2.441,0
1566844453.632,38.086,39.551,41.016,35.156,-118.164,0
1566844453.635,47.363,29.785,41.504,45.898,-141.602,0
1566844453.639,60.547,24.414,51.758,59.570,-131.836,0
1566844453.643,43.457,28.320,53.711,57.129,-155.273,0
1566844453.647,23.926,41.504,48.828,52.246,-173.340,0
1566844453.651,17.578,51.270,45.898,47.852,-159.180,0
1566844453.655,18.066,55.176,40.039,36.133,-132.324,0
1566844453.659,31.738,43.457,38.574,35.645,-98.633,0
1566844453.663,29.785,25.879,37.109,38.574,-91.309,0
1566844453.667,30.273,27.832,36.621,32.715,-74.219,0
1566844453.671,40.527,40.527,38.086,31.250,-72.266,0
1566844453.674,45.898,37.598,36.133,28.320,-78.125,0
1566844453.678,49.316,38.574,34.668,23.926,-57.129,0
1566844453.682,43.945,49.805,39.062,28.809,-42.480,0
1566844453.686,40.527,37.109,39.551,34.668,-8.789,0
1566844453.690,45.898,21.973,40.039,38.086,0.000,0
1566844453.694,42.480,30.762,41.016,33.691,-0.977,0
1566844453.698,36.621,46.875,39.062,25.391,0.000,0
1566844453.702,38.086,56.641,37.598,29.785,-23.926,0
1566844453.706,41.992,53.711,37.598,36.621,-34.180,0
1566844453.710,39.551,48.340,34.668,32.227,-31.738,0
1566844453.714,40.039,53.711,31.738,24.414,-30.273,0
1566844453.717,44.922,52.246,36.621,30.273,-19.043,0
1566844453.721,46.387,44.922,31.738,30.273,-33.203,0
1566844453.725,39.551,40.527,30.762,40.527,-20.996,0
1566844453.729,28.809,50.781,38.574,55.176,14.160,0
1566844453.733,31.250,35.156,38.086,54.199,5.371,0
1566844453.737,35.645,28.320,36.133,52.246,-8.301,0
1566844453.741,34.668,47.363,32.715,37.598,-8.789,0
1566844453.745,41.504,55.664,30.762,34.180,-13.184,0
1566844453.749,46.875,61.523,32.227,40.527,0.000,0
1566844453.753,38.086,59.570,33.691,39.551,16.113,0
1566844453.757,31.250,37.598,31.738,31.738,10.742,0
1566844453.760,34.180,33.691,29.297,37.109,14.160,0
1566844453.764,42.969,54.199,32.715,46.387,39.551,0
1566844453.768,43.945,56.152,31.738,40.527,34.668,0
1566844453.772,41.504,50.293,33.203,45.410,0.977,0
1566844453.776,49.805,50.293,35.645,45.898,9.766,0
1566844453.780,63.965,51.270,34.668,40.527,37.109,0
1566844453.784,85.449,55.664,37.109,48.340,39.551,0
1566844453.788,73.730,57.617,31.250,44.434,29.297,0
1566844453.792,50.781,43.457,31.738,41.992,25.879,0
1566844453.796,37.598,42.480,41.016,57.129,43.945,0
1566844453.799,21.484,46.387,39.062,62.988,63.477,0
1566844453.803,24.902,45.410,39.062,60.547,75.684,0
1566844453.807,36.621,43.945,43.945,55.664,72.754,0
1566844453.811,35.645,40.527,42.480,62.500,61.523,0
1566844453.815,42.480,49.316,41.504,83.008,74.219,0
1566844453.819,30.273,53.711,40.527,81.543,37.109,0
1566844453.823,20.020,56.152,42.480,68.848,21.973,0
1566844453.827,29.297,42.969,46.387,53.223,76.660,0
1566844453.831,27.344,34.668,42.480,35.645,86.426,0
1566844453.835,23.438,41.992,36.133,16.113,70.312,0
1566844453.839,27.344,38.086,37.598,2.930,61.523,0
1566844453.842,39.551,43.457,44.434,10.254,63.477,0
1566844453.846,36.133,49.805,38.086,5.371,63.965,0
1566844453.850,23.926,52.734,28.320,-1.465,65.918,0
1566844453.854,24.414,56.152,31.738,10.742,58.594,0
1566844453.858,28.809,52.734,36.133,21.484,59.082,0
1566844453.862,25.391,35.156,36.621,23.926,51.758,0
1566844453.866,20.508,27.832,35.645,20.996,42.480,0
1566844453.870,24.902,50.293,33.691,22.461,51.270,0
1566844453.874,29.297,57.617,34.180,24.902,50.781,0
1566844453.878,23.438,50.781,31.738,21.973,43.457,0
1566844453.882,21.484,54.199,31.738,26.367,43.945,0
1566844453.885,25.879,51.758,30.273,31.738,41.016,0
1566844453.889,28.320,48.828,31.250,36.133,47.363,0
1566844453.893,30.762,46.387,37.598,38.574,59.082,0
1566844453.897,34.668,43.945,35.645,37.109,64.453,0
1566844453.901,32.715,45.898,33.203,37.109,63.965,0
1566844453.905,32.227,47.363,36.133,40.527,56.641,0
1566844453.909,37.109,45.898,36.621,42.480,46.875,0
1566844453.913,34.180,35.645,34.180,40.527,37.598,0
1566844453.917,39.062,41.016,32.715,42.480,51.270,0
1566844453.921,43.945,43.457,32.227,48.340,31.738,0
1566844453.924,50.781,34.668,35.156,44.922,38.574,0
1566844453.928,67.383,47.852,41.016,36.133,77.637,0
1566844453.932,70.312,49.316,41.504,33.203,58.594,0
1566844453.936,58.594,33.691,36.621,35.156,75.684,0
1566844453.940,34.180,40.527,34.668,35.156,75.684,0
1566844453.944,23.926,45.410,37.598,49.805,24.414,0
1566844453.948,16.602,30.762,39.551,58.594,20.996,0
1566844453.952,18.555,28.320,39.062,52.734,36.133,0
1566844453.956,15.137,23.438,39.062,45.898,26.855,0
1566844453.960,19.531,12.207,45.410,55.664,27.344,0
1566844453.964,29.297,34.668,48.340,76.172,67.383,0
1566844453.967,33.203,56.152,44.922,80.566,50.293,0
1566844453.971,31.250,44.434,41.016,78.125,-6.348,0
1566844453.975,24.414,43.945,49.805,85.449,11.230,0
1566844453.979,26.855,45.410,51.758,74.707,58.594,0
1566844453.983,21.484,25.391,38.086,32.227,64.941,0
1566844453.987,20.020,32.227,39.551,16.113,73.730,0
1566844453.991,26.367,46.875,43.945,19.043,79.590,0
1566844453.995,27.832,48.828,40.527,8.301,54.199,0
1566844453.999,28.809,33.203,41.016,14.648,62.500,0
1566844454.003,32.227,43.945,46.387,33.691,43.457,0
1566844454.007,40.527,54.199,44.922,39.062,43.945,0
1566844454.010,44.434,39.551,45.898,48.340,64.453,0
1566844454.014,41.992,37.598,46.875,55.176,61.523,0
1566844454.018,51.270,41.016,46.875,60.547,66.406,0
1566844454.022,56.641,39.551,46.387,65.918,62.012,0
1566844454.026,46.875,47.852,43.457,64.941,55.664,0
1566844454.030,50.293,51.270,41.504,63.965,59.082,0
1566844454.034,57.129,43.945,41.504,69.824,62.500,0
1566844454.038,55.664,44.434,41.992,71.777,63.965,0
1566844454.042,52.246,45.898,35.645,60.547,59.082,0
1566844454.046,48.340,39.551,39.062,64.453,66.406,0
1566844454.049,57.129,48.828,42.969,66.895,78.125,0
