timestamps,TP9,AF7,AF8,TP10,Right AUX,Marker0
1574374564.786,5.371,22.949,19.043,14.648,2.930,0
1574374564.790,23.438,39.551,18.066,26.855,25.879,0
1574374564.794,15.625,51.758,20.508,27.832,31.250,0
1574374564.798,11.230,49.316,26.367,24.902,17.578,0
1574374564.802,16.113,43.457,28.320,21.484,31.738,0
1574374564.806,23.438,40.039,26.855,19.043,25.391,0
1574374564.810,25.879,47.363,21.484,27.344,10.742,0
1574374564.813,30.273,48.828,23.926,35.645,40.039,0
1574374564.817,30.273,37.109,32.227,27.832,45.898,0
1574374564.821,32.715,38.086,30.762,22.949,38.086,0
1574374564.825,36.621,55.176,31.250,37.109,44.922,0
1574374564.829,34.180,61.523,27.832,48.340,54.688,0
1574374564.833,41.504,54.688,32.227,54.199,86.914,0
1574374564.837,45.898,52.246,35.645,59.082,61.035,0
1574374564.841,30.273,47.852,32.227,37.598,24.414,0
1574374564.845,24.414,41.992,32.715,24.902,35.645,0
1574374564.849,34.180,46.875,26.855,39.551,36.133,0
1574374564.853,33.203,58.594,24.414,45.898,29.785,0
1574374564.856,31.250,54.199,34.180,46.387,35.156,0
1574374564.860,37.109,40.527,32.715,49.316,39.062,0
1574374564.864,25.879,44.434,25.391,21.484,48.340,0
1574374564.868,29.297,47.852,27.832,4.395,44.922,0
1574374564.872,35.645,45.898,33.203,42.480,67.871,0
1574374564.876,29.785,41.504,25.391,42.969,77.637,0
1574374564.880,32.227,42.969,19.043,26.367,50.293,0
1574374564.884,34.668,40.039,22.461,43.945,71.777,0
1574374564.888,44.434,39.551,34.180,51.758,107.422,0
1574374564.892,59.082,62.988,56.641,58.105,93.750,0
1574374564.896,50.781,73.730,57.617,61.035,72.266,0
1574374564.899,44.922,61.523,43.457,52.246,89.355,0
1574374564.903,67.871,69.824,52.734,62.012,98.145,0
1574374564.907,68.359,76.660,69.336,62.012,85.449,0
1574374564.911,47.363,71.289,65.918,57.617,78.125,0
1574374564.915,52.734,73.242,61.035,55.664,82.520,0
1574374564.919,59.082,59.082,56.641,52.246,88.867,0
1574374564.923,57.129,53.223,53.223,59.082,83.008,0
1574374564.927,55.664,72.754,55.664,66.406,83.008,0
1574374564.931,54.688,81.055,61.035,70.801,72.266,0
1574374564.935,58.594,80.566,59.082,74.219,77.148,0
1574374564.938,62.012,84.473,56.641,73.730,79.590,0
1574374564.942,54.688,70.312,59.570,68.359,87.402,0
1574374564.946,46.875,53.223,54.688,62.500,82.520,0
1574374564.950,47.363,49.805,55.176,65.918,79.102,0
1574374564.954,53.223,60.059,50.293,53.223,54.199,0
1574374564.958,48.340,73.730,45.898,43.457,30.762,0
1574374564.962,38.574,73.730,52.734,55.664,38.086,0
1574374564.966,42.480,66.895,44.434,57.129,27.344,0
1574374564.970,47.852,64.453,48.340,60.059,17.090,0
1574374564.974,47.852,61.035,50.781,65.918,22.461,0
1574374564.978,53.711,63.477,53.223,65.430,36.621,0
1574374564.981,43.945,59.570,53.711,59.082,21.973,0
1574374564.985,22.461,41.504,49.805,55.664,7.812,0
1574374564.989,31.250,47.363,47.852,54.688,21.484,0
1574374564.993,42.969,49.316,41.504,44.434,7.324,0
1574374564.997,46.875,50.293,41.504,45.898,15.137,0
1574374565.001,56.152,62.012,48.340,57.617,29.785,0
1574374565.005,57.617,52.734,43.457,53.223,20.996,0
1574374565.009,49.316,46.875,27.832,51.270,22.949,0
1574374565.013,54.199,62.988,31.738,62.012,42.480,0
1574374565.017,61.035,61.035,43.457,70.801,56.152,0
1574374565.021,54.199,58.105,36.621,60.547,49.316,0
1574374565.024,45.898,70.312,33.203,62.988,49.316,0
1574374565.028,42.969,62.988,41.992,68.848,47.852,0
1574374565.032,48.340,52.246,51.270,62.012,54.199,0
1574374565.036,48.828,57.617,54.199,59.570,47.363,0
1574374565.040,48.340,61.035,46.387,55.664,43.945,0
1574374565.044,51.758,45.898,31.738,62.500,63.965,0
1574374565.048,51.270,32.227,25.391,57.129,55.664,0
1574374565.052,33.691,48.340,35.645,41.016,46.875,0
1574374565.056,37.598,62.500,35.156,37.598,72.754,0
1574374565.060,37.109,58.105,24.902,36.133,63.477,0
1574374565.063,25.391,44.922,25.879,41.992,31.250,0
1574374565.067,41.992,45.898,32.227,50.781,54.199,0
1574374565.071,41.504,49.805,32.715,51.270,53.711,0
1574374565.075,36.133,40.527,30.762,47.852,55.176,0
1574374565.079,41.992,46.387,39.062,45.898,106.445,0
1574374565.083,35.645,48.340,43.945,43.945,217.773,0
1574374565.087,51.758,52.734,38.086,47.363,424.805,0
1574374565.091,69.336,69.824,34.668,43.457,652.344,0
1574374565.095,59.082,60.547,34.180,28.320,804.688,0
1574374565.099,53.223,44.922,32.227,31.250,844.238,0
1574374565.103,47.363,45.410,31.738,15.137,674.316,0
1574374565.106,39.551,57.129,34.180,12.695,402.832,0
1574374565.110,31.738,59.082,38.574,53.223,103.516,0
1574374565.114,40.527,41.504,40.527,60.547,-98.633,0
1574374565.118,42.480,33.203,34.668,52.246,-187.500,0
1574374565.122,19.531,49.316,25.391,41.504,-271.973,0
1574374565.126,16.113,53.223,28.809,37.598,-257.812,0
1574374565.130,15.137,51.270,36.621,34.180,-242.676,0
1574374565.134,5.371,54.199,31.250,37.109,-194.336,0
1574374565.138,2.930,37.598,19.531,35.156,-138.184,0
1574374565.142,16.602,39.551,18.555,22.461,-129.395,0
1574374565.146,16.602,54.199,25.879,23.438,-110.352,0
1574374565.149,9.277,46.387,27.832,18.066,-73.730,0
1574374565.153,15.137,42.480,28.809,8.789,-83.496,0
1574374565.157,11.719,41.016,29.785,27.832,-101.074,0
1574374565.161,20.020,29.785,24.414,41.504,-64.941,0
1574374565.165,24.902,46.875,27.832,23.926,-49.316,0
1574374565.169,26.855,64.453,38.086,30.762,-50.781,0
1574374565.173,22.461,47.363,42.480,45.410,-44.922,0
1574374565.177,22.949,46.387,35.156,41.504,-30.273,0
1574374565.181,25.879,49.316,32.715,45.410,-30.762,0
1574374565.185,29.297,45.898,37.598,50.781,-25.879,0
1574374565.188,36.621,48.828,37.109,48.828,-30.273,0
1574374565.192,32.715,40.527,26.367,43.457,-23.438,0
1574374565.196,28.809,40.039,21.484,46.875,-5.371,0
1574374565.200,32.227,52.734,32.715,46.875,15.137,0
1574374565.204,29.297,37.598,32.715,24.414,0.488,0
1574374565.208,30.273,29.785,29.785,23.926,-27.832,0
1574374565.212,26.855,53.223,35.156,52.246,-12.695,0
1574374565.216,37.598,59.082,31.738,59.082,9.277,0
1574374565.220,49.316,53.711,33.691,54.199,13.184,0
1574374565.224,41.504,60.059,31.738,53.711,5.371,0
1574374565.228,45.410,62.500,35.645,60.059,22.461,0
1574374565.231,35.645,59.570,38.574,59.082,36.621,0
1574374565.235,18.555,44.922,36.133,44.922,25.879,0
1574374565.239,18.066,38.086,41.504,33.691,0.977,0
1574374565.243,21.484,43.945,26.855,38.574,-11.230,0
1574374565.247,16.602,51.758,23.438,40.039,7.324,0
1574374565.251,20.508,53.223,37.598,34.180,38.574,0
1574374565.255,35.156,43.457,35.645,24.414,36.621,0
1574374565.259,36.133,41.992,30.273,32.227,16.113,0
1574374565.263,27.832,47.852,32.715,33.203,6.348,0
1574374565.267,34.180,49.316,26.367,33.203,32.715,0
1574374565.271,37.598,45.898,28.320,45.898,51.758,0
1574374565.274,44.922,48.340,36.133,50.781,25.391,0
1574374565.278,52.246,55.176,35.156,53.223,41.016,0
1574374565.282,39.062,54.688,30.762,44.434,45.898,0
1574374565.286,39.551,55.664,27.832,37.109,45.898,0
1574374565.290,33.203,50.293,30.762,36.621,37.598,0
1574374565.294,28.809,47.363,35.156,37.598,32.227,0
1574374565.298,36.133,45.410,34.668,37.598,44.922,0
1574374565.302,36.621,42.480,31.738,46.875,62.500,0
1574374565.306,45.410,40.527,25.879,45.410,84.473,0
1574374565.310,38.086,43.457,31.250,47.852,86.914,0
1574374565.313,31.738,52.246,39.551,51.758,67.871,0
1574374565.317,36.621,53.711,38.086,35.645,71.289,0
1574374565.321,41.992,44.922,31.738,30.762,85.449,0
1574374565.325,40.039,46.387,18.066,47.852,62.012,0
1574374565.329,42.480,57.129,36.133,59.082,62.500,0
1574374565.333,36.133,51.270,45.898,54.199,84.961,0
1574374565.337,27.832,39.551,33.691,36.621,84.961,0
1574374565.341,31.738,34.668,29.785,32.227,99.609,0
1574374565.345,34.180,27.344,20.996,34.668,105.469,0
1574374565.349,41.504,42.480,23.926,30.762,104.980,0
1574374565.353,36.621,45.898,26.367,30.762,112.305,0
1574374565.356,20.996,34.180,19.531,31.738,92.285,0
1574374565.360,15.625,36.621,20.020,19.043,69.824,0
1574374565.364,28.320,46.875,27.832,30.273,104.492,0
1574374565.368,35.645,52.246,23.926,45.410,122.070,0
1574374565.372,29.785,47.852,18.555,29.297,109.863,0
1574374565.376,35.156,41.992,29.785,37.109,125.000,0
1574374565.380,40.039,38.086,26.367,55.664,118.164,0
1574374565.384,39.551,43.945,34.668,49.316,113.770,0
1574374565.388,37.109,62.012,51.758,45.898,123.047,0
1574374565.392,33.691,61.035,30.273,39.551,122.070,0
1574374565.396,34.180,46.875,17.090,37.598,111.816,0
1574374565.399,29.297,47.363,33.691,35.645,97.656,0
1574374565.403,19.043,53.711,44.434,35.156,115.234,0
1574374565.407,33.691,48.340,43.945,45.898,118.652,0
1574374565.411,53.711,45.898,39.062,28.320,82.031,0
1574374565.415,42.969,45.898,37.598,30.762,77.637,0
1574374565.419,32.715,46.875,31.738,51.758,83.496,0
1574374565.423,41.016,57.129,25.879,51.758,74.219,0
1574374565.427,43.457,65.430,38.086,60.059,56.152,0
1574374565.431,32.227,48.340,41.016,49.805,43.945,0
1574374565.435,41.016,30.762,40.527,43.945,25.879,0
1574374565.438,32.715,45.898,37.598,48.828,-7.812,0
1574374565.442,18.066,61.523,23.438,41.992,-2.441,0
1574374565.446,29.297,62.988,27.344,41.504,12.695,0
1574374565.450,39.062,60.059,42.480,46.875,8.789,0
1574374565.454,32.715,56.641,45.898,49.805,-15.625,0
1574374565.458,21.484,46.387,39.551,42.480,-39.062,0
1574374565.462,34.180,44.922,40.039,37.598,-39.551,0
1574374565.466,39.551,55.664,40.039,42.969,-25.391,0
1574374565.470,34.180,60.547,41.992,37.598,-27.344,0
1574374565.474,26.855,53.711,37.598,25.391,-43.457,0
1574374565.478,31.738,44.434,34.668,36.621,-28.320,0
1574374565.481,31.738,32.715,40.527,57.129,-11.230,0
1574374565.485,22.461,45.898,42.969,61.523,-8.301,0
1574374565.489,27.344,42.969,32.715,51.758,-29.297,0
1574374565.493,28.320,41.016,18.066,40.527,-32.227,0
1574374565.497,26.855,48.340,27.832,37.598,-18.066,0
1574374565.501,27.344,43.945,42.480,34.668,-23.926,0
1574374565.505,20.508,36.621,41.992,29.297,-25.879,0
1574374565.509,22.949,33.203,34.180,39.551,-8.789,0
1574374565.513,21.973,49.316,34.668,32.227,-10.254,0
1574374565.517,19.531,51.270,38.574,16.602,-6.348,0
1574374565.521,28.320,45.410,35.645,35.645,8.789,0
1574374565.524,26.367,41.504,31.738,41.992,-2.441,0
1574374565.528,24.902,31.250,29.297,32.715,-14.160,0
1574374565.532,24.414,36.133,16.602,28.320,-12.695,0
1574374565.536,21.973,55.176,9.766,32.715,3.418,0
1574374565.540,26.367,51.758,20.996,40.527,12.695,0
1574374565.544,30.762,45.410,29.297,46.387,6.348,0
1574374565.548,34.180,50.781,30.273,54.199,28.809,0
1574374565.552,32.227,46.875,35.645,57.617,24.414,0
1574374565.556,32.715,38.574,34.180,50.293,11.719,0
1574374565.560,30.762,41.992,28.809,34.668,26.367,0
1574374565.563,15.137,42.480,19.043,23.926,-2.930,0
1574374565.567,15.137,40.527,16.602,26.367,-14.160,0
1574374565.571,18.555,42.969,16.602,27.344,20.996,0
1574374565.575,26.367,29.297,25.391,31.738,25.879,0
1574374565.579,28.320,19.531,28.320,34.180,7.324,0
1574374565.583,26.367,49.316,22.949,37.598,-7.324,0
1574374565.587,20.996,49.316,31.250,22.461,0.000,0
1574374565.591,19.043,34.668,29.785,15.625,0.488,0
1574374565.595,29.297,47.363,31.250,40.039,12.207,0
1574374565.599,23.438,48.340,39.551,46.387,35.645,0
1574374565.603,22.461,44.434,32.227,39.062,31.250,0
1574374565.606,34.668,48.828,27.832,45.898,28.809,0
1574374565.610,29.785,49.805,32.227,43.945,28.809,0
1574374565.614,18.066,42.969,29.297,31.250,12.695,0
1574374565.618,24.902,43.457,32.227,34.668,21.973,0
1574374565.622,33.691,48.340,35.156,36.133,46.387,0
1574374565.626,29.785,39.062,32.715,38.086,46.875,0
1574374565.630,28.809,35.645,35.156,35.645,19.531,0
1574374565.634,30.273,49.316,36.133,29.785,30.273,0
1574374565.638,25.391,52.246,20.508,25.879,40.039,0
1574374565.642,29.785,52.246,19.043,42.969,32.715,0
1574374565.646,29.297,37.109,29.785,52.734,34.668,0
1574374565.649,22.949,26.855,37.598,49.805,20.508,0
1574374565.653,35.156,49.805,43.945,53.223,53.711,0
1574374565.657,44.922,59.082,41.504,55.664,90.332,0
1574374565.661,37.598,56.152,36.621,51.270,48.828,0
1574374565.665,31.738,53.711,40.039,44.434,10.254,0
1574374565.669,37.109,45.898,40.039,47.363,6.836,0
1574374565.673,38.574,45.410,24.902,48.828,23.438,0
1574374565.677,34.668,40.039,28.320,46.875,39.551,0
1574374565.681,31.738,25.391,47.363,49.316,31.738,0
1574374565.685,28.320,38.086,52.246,38.574,19.531,0
1574374565.688,25.879,60.547,35.156,34.180,35.156,0
1574374565.692,27.344,56.152,17.578,30.273,30.762,0
1574374565.696,33.691,49.316,23.926,25.879,36.133,0
1574374565.700,45.898,46.875,36.133,49.805,43.457,0
1574374565.704,44.434,52.246,39.551,55.664,31.738,0
1574374565.708,31.738,46.875,35.645,31.250,22.461,0
1574374565.712,27.832,42.969,25.879,25.879,25.879,0
1574374565.716,22.949,43.945,20.996,36.621,28.320,0
1574374565.720,26.855,39.551,30.273,41.504,50.781,0
1574374565.724,36.621,32.227,36.133,39.062,41.504,0
1574374565.728,28.809,37.109,30.273,31.738,21.973,0
1574374565.731,14.160,45.898,24.902,30.762,23.926,0
1574374565.735,20.996,48.828,24.414,33.691,25.391,0
1574374565.739,19.043,50.293,32.715,37.109,27.832,0
1574374565.743,10.254,33.691,35.645,33.203,15.137,0
1574374565.747,20.508,24.902,21.484,30.762,31.738,0
1574374565.751,26.855,30.762,22.461,32.227,32.715,0
1574374565.755,22.461,40.039,39.062,17.090,20.508,0
1574374565.759,20.020,50.293,42.969,10.254,36.133,0
1574374565.763,34.180,47.852,41.016,39.062,62.500,0
1574374565.767,31.738,44.434,38.086,41.016,65.918,0
1574374565.771,26.367,37.109,32.715,26.855,57.129,0
1574374565.774,34.180,48.340,42.480,42.969,68.848,0
1574374565.778,17.090,55.664,39.062,46.387,76.172,0
1574374565.782,12.207,40.039,28.809,29.297,58.594,0
1574374565.786,36.133,43.945,40.039,27.344,43.457,0
1574374565.790,16.113,48.340,40.527,31.738,51.758,0
1574374565.794,1.465,53.223,27.344,27.832,31.250,0
1574374565.798,16.113,52.734,27.344,25.879,40.527,0
1574374565.802,19.531,49.805,30.762,9.766,40.527,0
1574374565.806,17.090,53.223,28.320,10.254,2.930,0
1574374565.810,20.508,53.223,32.715,30.762,19.043,0
1574374565.813,25.879,46.875,33.691,33.691,48.340,0
1574374565.817,20.020,40.039,33.203,26.367,52.734,0
1574374565.821,20.508,47.852,28.809,24.414,43.945,0
1574374565.825,11.230,48.828,18.555,19.043,27.344,0
1574374565.829,3.906,34.180,24.902,12.695,23.926,0
1574374565.833,1.465,35.156,35.156,20.996,42.969,0
1574374565.837,1.465,45.410,35.156,24.414,29.785,0
1574374565.841,1.465,35.645,34.180,8.301,17.090,0
1574374565.845,3.418,34.668,31.738,-12.207,10.742,0
1574374565.849,-4.395,42.480,31.738,2.930,2.930,0
1574374565.853,-9.277,37.598,33.691,26.855,10.254,0
1574374565.856,17.578,46.875,29.785,22.949,-1.953,0
1574374565.860,15.137,45.410,30.273,4.883,-17.578,0
1574374565.864,6.836,41.016,37.109,11.230,-27.832,0
1574374565.868,2.441,46.875,33.203,6.836,-41.992,0
1574374565.872,-17.578,37.598,25.391,-16.113,-44.434,0
1574374565.876,-7.812,37.598,27.344,-4.395,-40.527,0
1574374565.880,-14.648,44.434,22.461,-6.348,-41.504,0
1574374565.884,-28.320,50.293,25.391,-26.367,-53.711,0
1574374565.888,-28.809,54.688,27.832,-28.320,-77.148,0
1574374565.892,-41.504,46.387,26.855,-35.645,-74.219,0
1574374565.896,-26.367,40.039,35.156,-42.480,-64.453,0
1574374565.899,-35.645,44.922,24.414,-44.922,-78.125,0
1574374565.903,-72.266,52.734,12.207,-52.734,-72.266,0
1574374565.907,-61.035,25.391,23.926,-45.898,-84.961,0
1574374565.911,-49.805,10.742,30.762,-50.293,-92.773,0
1574374565.915,-59.082,39.551,27.832,-69.336,-95.703,0
1574374565.919,-77.637,56.641,21.484,-67.383,-109.863,0
1574374565.923,-81.543,86.426,15.625,-56.641,-83.496,0
1574374565.927,-57.129,22.949,16.113,-59.570,-83.496,0
1574374565.931,-62.012,-15.625,13.672,-63.965,-97.656,0
1574374565.935,-66.895,98.145,16.113,-65.430,-84.473,0
1574374565.938,-57.129,111.816,24.414,-70.312,-71.289,0
1574374565.942,-48.828,69.336,18.555,-56.641,-64.941,0
1574374565.946,-34.668,74.219,3.906,-40.527,-59.082,0
1574374565.950,-37.598,80.078,4.395,-53.711,-62.988,0
1574374565.954,-46.387,75.195,9.766,-47.852,-55.664,0
1574374565.958,-30.273,70.312,5.859,-23.438,-42.969,0
1574374565.962,-9.277,62.500,1.465,-35.156,-21.484,0
1574374565.966,-2.441,53.223,-3.418,-30.273,6.348,0
1574374565.970,-4.395,42.480,-8.789,-1.953,0.977,0
1574374565.974,5.371,52.246,-12.695,-0.977,6.348,0
1574374565.978,15.137,57.129,-16.113,-0.977,66.406,0
1574374565.981,13.672,48.828,-20.508,-9.277,202.148,0
1574374565.985,33.203,55.176,-22.949,-16.602,423.340,0
1574374565.989,39.551,51.270,-20.020,6.836,626.953,0
1574374565.993,34.668,49.316,-20.020,20.020,763.672,0
1574374565.997,43.457,56.641,-13.672,13.184,764.160,0
1574374566.001,40.527,70.801,-7.812,4.395,580.566,0
1574374566.005,46.387,70.312,-12.695,23.926,324.219,0
1574374566.009,48.340,57.617,-12.695,29.297,47.363,0
1574374566.013,39.062,53.711,-11.230,24.902,-144.043,0
1574374566.017,33.691,48.340,-16.113,37.109,-218.750,0
1574374566.021,27.344,50.293,-20.996,43.945,-263.672,0
1574374566.024,45.410,36.133,-12.695,50.781,-247.070,0
1574374566.028,57.129,28.809,-2.930,58.105,-153.809,0
1574374566.032,52.734,51.270,-0.488,54.688,-103.516,0
1574374566.036,65.430,55.664,-1.465,48.340,-99.121,0
1574374566.040,62.988,39.551,-0.488,54.199,-83.984,0
1574374566.044,49.316,44.922,9.766,56.641,-75.684,0
1574374566.048,53.711,60.059,10.742,48.828,-72.754,0
1574374566.052,62.988,56.641,9.277,52.246,-63.965,0
1574374566.056,71.289,38.086,15.137,74.707,-44.922,0
1574374566.060,72.754,20.996,22.461,79.102,-8.789,0
1574374566.063,66.895,20.996,22.461,70.801,-5.859,0
1574374566.067,74.219,44.434,21.973,78.613,-4.395,0
1574374566.071,77.637,55.664,30.762,83.984,0.000,0
1574374566.075,79.102,57.617,38.574,82.031,12.695,0
1574374566.079,86.426,69.824,36.621,73.730,12.207,0
1574374566.083,70.801,59.570,29.297,64.453,-1.465,0
1574374566.087,60.547,50.781,21.484,63.477,-1.953,0
1574374566.091,73.242,47.363,21.973,67.383,-21.484,0
1574374566.095,73.730,50.781,33.203,76.660,4.395,0
1574374566.099,60.059,53.711,29.297,74.707,36.133,0
1574374566.103,69.336,35.645,26.367,62.500,18.066,0
1574374566.106,71.289,35.645,38.086,69.336,17.090,0
1574374566.110,59.570,47.852,38.574,79.590,41.992,0
1574374566.114,65.918,40.527,27.344,75.684,43.457,0
1574374566.118,68.359,42.969,20.020,66.406,26.855,0
1574374566.122,60.059,47.852,32.227,59.082,26.367,0
1574374566.126,50.781,43.457,40.527,66.406,43.945,0
1574374566.130,53.711,51.270,31.738,62.012,46.387,0
1574374566.134,60.059,48.828,37.109,63.477,45.898,0
1574374566.138,52.246,19.531,41.992,78.125,49.316,0
1574374566.142,52.734,15.625,33.691,71.289,48.828,0
1574374566.146,50.293,57.129,22.949,46.875,57.617,0
1574374566.149,47.363,63.965,18.066,47.852,47.852,0
1574374566.153,52.734,47.363,20.996,65.918,40.039,0
1574374566.157,52.734,51.270,27.832,64.941,50.781,0
1574374566.161,45.410,46.387,22.461,58.105,38.086,0
1574374566.165,48.340,52.246,18.555,63.477,43.945,0
1574374566.169,55.664,47.363,26.367,66.895,45.410,0
1574374566.173,49.316,31.250,36.621,62.500,64.941,0
1574374566.177,55.664,41.504,55.176,56.641,53.711,0
1574374566.181,50.293,43.945,62.500,60.547,40.527,0
1574374566.185,35.156,43.945,41.992,57.129,54.688,0
1574374566.188,48.828,44.434,34.668,49.316,55.176,0
1574374566.192,44.922,38.574,41.016,47.852,44.922,0
1574374566.196,38.574,19.531,39.551,44.434,45.410,0
1574374566.200,45.410,25.391,45.898,63.477,69.336,0
1574374566.204,52.734,65.918,40.039,75.684,94.238,0
1574374566.208,33.203,71.777,23.926,51.270,59.082,0
1574374566.212,21.484,53.711,21.484,36.133,31.738,0
1574374566.216,38.574,37.109,18.555,42.969,61.035,0
1574374566.220,35.156,36.621,17.090,33.203,41.016,0
1574374566.224,18.066,47.363,22.461,21.973,43.457,0
1574374566.228,21.973,43.945,34.668,25.879,65.918,0
1574374566.231,36.621,17.090,38.574,32.715,59.082,0
1574374566.235,3.906,24.414,33.691,27.344,46.875,0
1574374566.239,3.418,28.809,25.879,6.348,56.641,0
1574374566.243,35.156,47.363,25.879,9.766,83.984,0
1574374566.247,26.855,83.496,28.320,23.926,92.285,0
1574374566.251,19.043,73.730,21.973,17.090,86.914,0
1574374566.255,19.531,60.547,35.156,31.250,98.633,0
1574374566.259,20.508,46.387,40.039,41.016,117.676,0
1574374566.263,22.949,48.828,30.273,32.715,95.703,0
1574374566.267,24.902,57.617,33.203,31.250,100.098,0
1574374566.271,29.297,46.387,24.414,23.926,126.465,0
1574374566.274,36.133,49.316,24.902,24.902,111.328,0
1574374566.278,34.668,46.387,32.227,26.855,100.098,0
1574374566.282,27.832,37.598,29.297,28.320,109.863,0
1574374566.286,36.133,39.551,31.738,42.969,123.535,0
1574374566.290,38.086,34.668,38.574,35.645,136.719,0
1574374566.294,41.992,39.062,38.574,28.320,141.602,0
1574374566.298,47.852,31.250,30.762,46.387,125.488,0
1574374566.302,49.805,20.996,25.879,42.969,100.586,0
1574374566.306,49.805,39.062,40.527,54.688,121.094,0
1574374566.310,42.969,44.922,47.363,57.617,143.555,0
1574374566.313,27.344,39.062,31.738,32.227,87.402,0
1574374566.317,23.438,20.996,20.996,33.691,41.016,0
1574374566.321,47.852,14.648,21.973,54.688,82.520,0
1574374566.325,48.340,48.828,31.738,41.992,59.570,0
1574374566.329,34.180,61.035,34.668,18.555,23.926,0
1574374566.333,33.691,54.688,31.250,33.691,24.902,0
1574374566.337,22.461,40.039,28.809,41.016,6.836,0
1574374566.341,30.762,34.180,29.785,49.805,3.906,0
1574374566.345,41.016,58.594,28.809,41.504,-2.441,0
1574374566.349,25.879,40.039,26.367,29.785,-20.508,0
1574374566.353,31.738,8.301,22.949,36.621,-1.953,0
1574374566.356,37.109,29.785,20.508,35.645,6.836,0
1574374566.360,35.645,46.387,18.066,41.504,-42.969,0
1574374566.364,15.137,46.875,17.090,38.574,-44.922,0
1574374566.368,14.648,54.688,30.762,36.621,-31.250,0
1574374566.372,38.086,36.621,29.297,31.738,-31.250,0
1574374566.376,28.320,26.855,27.832,20.996,-33.691,0
1574374566.380,33.203,42.480,35.645,38.574,-30.762,0
1574374566.384,34.180,26.367,29.785,52.734,-31.250,0
1574374566.388,32.715,9.766,35.156,59.082,-30.273,0
1574374566.392,40.527,19.531,30.273,41.992,-20.508,0
1574374566.396,25.879,21.973,18.066,30.273,-29.297,0
1574374566.399,23.926,59.570,25.879,50.781,-20.996,0
1574374566.403,33.203,86.914,21.484,42.969,-40.527,0
1574374566.407,25.391,66.406,21.484,39.062,-32.715,0
1574374566.411,25.391,57.617,18.066,41.016,-2.441,0
1574374566.415,36.133,44.434,14.160,35.156,-19.043,0
1574374566.419,37.598,26.855,30.762,32.715,-16.602,0
1574374566.423,28.320,30.762,26.367,40.039,8.789,0
1574374566.427,21.973,36.133,21.484,40.039,-20.020,0
1574374566.431,24.414,38.574,29.297,32.715,-29.297,0
1574374566.435,40.527,33.203,30.762,42.969,5.859,0
1574374566.438,36.621,38.086,32.715,44.434,0.488,0
1574374566.442,38.086,53.711,29.297,46.875,13.184,0
1574374566.446,21.973,47.852,21.484,45.410,11.719,0
1574374566.450,12.207,41.504,23.438,37.598,0.488,0
1574374566.454,45.898,37.109,28.809,31.738,16.602,0
1574374566.458,40.039,35.645,23.438,38.574,23.438,0
1574374566.462,31.738,55.176,15.625,48.828,36.133,0
1574374566.466,22.949,50.293,13.184,40.039,29.297,0
1574374566.470,24.414,36.621,19.043,36.621,17.090,0
1574374566.474,40.039,24.902,23.926,35.156,30.762,0
1574374566.478,33.203,32.715,22.949,46.387,37.598,0
1574374566.481,34.180,50.293,26.367,46.387,53.223,0
1574374566.485,40.039,56.641,31.738,46.387,51.270,0
1574374566.489,23.926,66.406,27.344,51.270,29.297,0
1574374566.493,19.531,42.969,16.113,36.133,24.414,0
1574374566.497,31.250,33.691,21.973,40.039,40.039,0
1574374566.501,21.973,46.875,30.273,49.316,46.387,0
1574374566.505,21.484,41.992,36.133,47.363,20.996,0
1574374566.509,20.020,44.922,28.809,41.016,19.043,0
1574374566.513,27.832,35.156,14.160,38.086,32.227,0
1574374566.517,42.969,29.785,23.438,36.621,53.711,0
1574374566.521,26.855,34.668,20.508,32.715,65.430,0
1574374566.524,16.602,44.922,4.883,14.648,5.859,0
1574374566.528,19.043,52.734,11.719,10.254,22.949,0
1574374566.532,16.602,47.852,24.414,41.992,43.945,0
1574374566.536,24.414,32.227,24.414,41.992,9.277,0
1574374566.540,35.645,20.996,25.391,35.156,27.344,0
1574374566.544,30.762,44.922,13.672,34.180,30.762,0
1574374566.548,22.949,53.711,6.348,37.598,20.020,0
1574374566.552,23.926,26.855,18.555,36.621,34.668,0
1574374566.556,25.879,30.762,26.367,30.762,26.855,0
1574374566.560,39.062,44.922,36.621,35.645,33.203,0
1574374566.563,36.621,40.527,30.762,30.273,42.480,0
1574374566.567,15.625,51.758,25.879,34.668,25.391,0
1574374566.571,19.043,75.195,28.320,41.016,11.230,0
1574374566.575,23.438,65.918,20.020,15.137,30.762,0
1574374566.579,20.508,47.852,20.508,9.766,33.691,0
1574374566.583,21.973,42.480,19.531,36.621,12.695,0
1574374566.587,19.531,39.062,18.555,45.898,20.508,0
1574374566.591,13.672,31.738,20.020,37.598,25.879,0
1574374566.595,20.996,29.297,23.438,34.180,32.715,0
1574374566.599,29.297,29.297,33.203,40.527,24.902,0
1574374566.603,37.109,35.645,35.645,42.480,20.508,0
1574374566.606,31.738,31.738,19.531,31.250,37.109,0
1574374566.610,29.297,41.016,28.809,26.855,20.020,0
1574374566.614,30.273,55.664,37.598,39.551,25.391,0
1574374566.618,26.855,58.105,25.391,37.109,32.227,0
1574374566.622,32.715,42.969,27.344,43.457,26.367,0
1574374566.626,40.527,39.551,29.297,43.945,35.156,0
1574374566.630,27.832,59.082,28.809,33.203,46.387,0
1574374566.634,20.508,48.828,33.203,37.109,16.602,0
1574374566.638,39.062,31.738,35.645,42.480,-4.883,0
1574374566.642,34.668,50.781,30.273,38.574,8.789,0
1574374566.646,15.625,61.035,25.879,34.180,6.348,0
1574374566.649,24.414,55.176,29.785,35.156,18.555,0
1574374566.653,31.738,53.223,22.461,29.785,22.461,0
1574374566.657,31.738,45.410,20.508,19.531,26.367,0
1574374566.661,22.949,27.832,23.438,5.859,39.551,0
1574374566.665,16.602,23.926,23.438,14.648,51.270,0
1574374566.669,24.414,34.180,24.414,36.621,49.805,0
1574374566.673,22.949,43.945,23.926,44.434,53.223,0
1574374566.677,27.344,39.551,28.809,41.504,57.617,0
1574374566.681,24.902,25.391,28.320,35.156,50.781,0
1574374566.685,22.461,25.391,19.531,32.715,51.758,0
1574374566.688,29.297,43.945,19.531,33.691,69.336,0
1574374566.692,29.785,54.199,31.738,35.156,75.195,0
1574374566.696,33.691,44.922,40.527,45.410,67.871,0
1574374566.700,33.203,39.551,39.551,37.598,55.664,0
1574374566.704,13.672,30.762,28.320,18.066,25.879,0
1574374566.708,-7.812,20.508,18.066,5.371,0.977,0
1574374566.712,2.930,35.156,17.090,4.883,33.691,0
1574374566.716,25.391,48.340,21.973,11.719,56.641,0
1574374566.720,25.391,52.246,17.578,21.973,45.898,0
1574374566.724,33.203,61.523,13.672,37.598,45.410,0
1574374566.728,29.297,42.969,20.996,29.297,45.898,0
1574374566.731,25.391,42.969,24.902,27.832,31.250,0
1574374566.735,25.879,50.293,30.762,27.832,43.945,0
1574374566.739,18.066,41.992,30.762,20.508,60.059,0
1574374566.743,24.902,39.062,29.297,26.855,34.180,0
1574374566.747,36.621,18.555,33.203,35.645,41.992,0
1574374566.751,29.297,20.996,27.832,33.203,24.414,0
1574374566.755,22.949,49.805,24.902,29.785,-3.906,0
1574374566.759,27.832,55.664,20.508,20.996,15.625,0
1574374566.763,24.902,58.105,15.137,17.578,15.625,0
1574374566.767,28.320,43.457,14.160,35.645,26.855,0
1574374566.771,38.574,23.438,19.531,35.645,35.156,0
1574374566.774,39.062,43.945,27.832,41.992,10.742,0
1574374566.778,29.785,62.012,24.414,41.504,-14.648,0
1574374566.782,19.531,47.852,16.113,31.250,-7.812,0
1574374566.786,20.020,23.926,10.254,37.109,1.465,0
1574374566.790,41.504,20.020,20.996,46.387,5.371,0
1574374566.794,29.297,54.688,21.973,35.645,5.371,0
1574374566.798,12.695,72.266,16.602,11.230,-12.695,0
1574374566.802,17.090,70.312,22.461,18.066,1.953,0
1574374566.806,18.555,68.359,26.367,27.344,5.371,0
1574374566.810,37.109,55.176,28.320,38.086,5.371,0
1574374566.813,46.387,39.551,24.902,35.156,29.785,0
1574374566.817,30.762,19.043,24.902,41.016,27.344,0
1574374566.821,20.508,23.926,13.184,44.922,-0.488,0
1574374566.825,30.762,63.965,6.836,32.715,0.488,0
1574374566.829,36.133,70.312,23.926,41.504,20.020,0
1574374566.833,37.598,56.152,23.926,42.480,21.973,0
1574374566.837,34.668,48.340,23.438,34.180,16.602,0
1574374566.841,28.809,25.879,22.461,26.855,11.719,0
1574374566.845,37.598,18.066,21.973,36.133,21.484,0
1574374566.849,35.156,39.062,28.809,41.992,66.406,0
1574374566.853,23.926,66.406,27.832,36.133,60.547,0
1574374566.856,35.645,68.848,24.414,48.340,16.602,0
1574374566.860,27.344,41.504,21.973,43.457,52.734,0
1574374566.864,33.691,38.086,29.785,29.785,62.012,0
1574374566.868,36.133,53.223,26.855,27.832,43.457,0
1574374566.872,23.926,34.668,26.855,30.273,37.598,0
1574374566.876,30.762,11.230,24.902,38.086,42.480,0
1574374566.880,25.391,33.203,20.508,29.785,98.633,0
1574374566.884,21.973,45.898,9.766,17.090,251.953,0
1574374566.888,45.898,35.156,2.930,33.691,451.172,0
1574374566.892,52.734,61.035,26.367,35.156,659.180,0
1574374566.896,35.156,70.801,21.484,11.230,803.223,0
1574374566.899,33.691,40.039,12.695,15.137,807.129,0
1574374566.903,44.922,47.852,45.410,31.250,629.883,0
1574374566.907,59.082,-2.441,26.855,46.875,372.070,0
1574374566.911,56.152,-33.691,-15.625,57.129,85.449,0
1574374566.915,12.695,85.938,21.973,31.250,-157.227,0
1574374566.919,41.016,83.496,68.848,37.598,-203.125,0
1574374566.923,56.152,-32.715,19.531,37.109,-220.215,0
1574374566.927,29.785,6.836,2.930,43.457,-233.887,0
1574374566.931,49.316,71.777,45.898,74.219,-126.953,0
1574374566.935,57.617,-12.695,61.523,77.637,-67.871,0
1574374566.938,17.090,10.742,14.648,44.434,-95.215,0
1574374566.942,-18.066,104.492,-13.672,11.230,-109.863,0
1574374566.946,4.395,60.059,32.227,7.324,-117.188,0
1574374566.950,11.230,36.621,54.199,6.348,-121.582,0
1574374566.954,8.789,69.336,66.895,10.742,-102.539,0
1574374566.958,9.277,60.059,53.711,19.531,-60.059,0
1574374566.962,16.113,32.715,27.832,21.484,-52.246,0
1574374566.966,29.297,28.809,35.156,29.297,-79.102,0
1574374566.970,24.414,17.090,39.062,35.645,-62.500,0
1574374566.974,35.645,16.113,44.922,42.969,-8.301,0
1574374566.978,45.898,23.438,58.594,40.527,-33.203,0
1574374566.981,34.668,17.090,49.316,22.461,-52.734,0
1574374566.985,15.625,38.086,33.691,13.672,-48.828,0
1574374566.989,23.438,44.922,39.062,25.391,-49.805,0
1574374566.993,11.719,26.367,39.551,14.160,-46.387,0
1574374566.997,-6.836,18.555,19.531,-4.883,-52.246,0
1574374567.001,41.504,15.137,32.227,28.320,-2.930,0
1574374567.005,32.227,14.160,38.574,21.484,-23.926,0
1574374567.009,-38.086,50.781,-9.766,-42.480,-97.168,0
1574374567.013,-36.621,67.383,18.555,-46.875,-96.191,0
1574374567.017,-27.344,54.688,53.223,-38.574,-75.195,0
1574374567.021,-37.109,17.090,14.648,-44.922,-60.059,0
1574374567.024,-45.410,-27.832,7.324,-43.945,-61.035,0
1574374567.028,-26.855,6.836,18.066,-28.320,-65.918,0
1574374567.032,-25.391,44.922,7.324,-21.973,-58.105,0
1574374567.036,-57.129,71.777,6.836,-46.387,-68.359,0
1574374567.040,-82.520,69.824,34.668,-81.055,-95.215,0
1574374567.044,-81.055,36.621,51.758,-90.820,-108.887,0
1574374567.048,-48.828,43.457,46.875,-44.922,-59.082,0
1574374567.052,-49.805,62.500,44.922,-42.969,-47.363,0
1574374567.056,-41.504,30.273,51.758,-58.594,-62.500,0
1574374567.060,-41.504,-1.465,48.340,-46.875,-35.156,0
1574374567.063,-39.062,14.648,29.785,-44.922,-72.266,0
1574374567.067,-42.480,-1.953,19.043,-43.945,-81.055,0
1574374567.071,-53.711,40.527,21.484,-29.785,-69.336,0
1574374567.075,-18.066,83.008,9.277,-8.301,-48.340,0
1574374567.079,-3.418,54.199,10.254,-13.184,-14.160,0
1574374567.083,8.301,76.660,29.297,-12.207,-35.156,0
1574374567.087,10.254,49.316,52.734,-8.301,-34.668,0
1574374567.091,-25.391,20.996,68.359,-31.250,-37.109,0
1574374567.095,-20.996,56.641,19.531,-19.531,-34.180,0
1574374567.099,-0.488,60.547,29.785,-8.301,-14.160,0
1574374567.103,7.812,38.086,87.402,-1.465,-5.371,0
1574374567.106,-22.949,9.277,38.086,-23.438,-31.738,0
1574374567.110,-25.879,12.207,11.719,-28.809,-33.203,0
1574374567.114,17.578,84.961,24.902,11.230,-5.371,0
1574374567.118,3.906,97.656,30.762,3.418,-3.906,0
1574374567.122,-3.418,68.848,40.527,-6.836,-12.207,0
1574374567.126,27.344,-13.672,41.992,16.113,14.648,0
1574374567.130,30.273,-12.695,51.758,27.832,32.227,0
1574374567.134,15.137,92.285,57.129,9.277,31.250,0
1574374567.138,10.742,72.266,51.758,3.418,53.223,0
1574374567.142,-1.465,33.203,38.574,-0.977,25.391,0
1574374567.146,-2.441,40.039,25.879,-14.648,6.836,0
1574374567.149,20.020,41.992,25.391,22.461,57.617,0
1574374567.153,12.207,31.250,44.922,22.949,74.219,0
1574374567.157,9.277,19.043,60.547,6.836,84.961,0
1574374567.161,7.324,9.277,67.383,24.414,106.934,0
1574374567.165,5.859,61.523,59.082,25.391,101.562,0
1574374567.169,21.484,95.703,44.434,23.438,110.352,0
1574374567.173,27.832,83.984,48.828,33.203,110.840,0
1574374567.177,32.715,59.082,48.340,41.504,97.168,0
1574374567.181,28.320,10.254,35.645,20.508,82.031,0
1574374567.185,26.367,-4.883,44.434,14.648,104.492,0
1574374567.188,47.852,37.598,51.758,36.621,149.414,0
1574374567.192,60.059,71.289,39.062,48.340,144.531,0
1574374567.196,31.250,50.781,31.250,27.832,120.117,0
1574374567.200,28.809,54.199,41.992,25.879,116.699,0
1574374567.204,37.598,42.480,9.277,46.387,109.375,0
1574374567.208,66.406,34.180,30.273,69.336,130.859,0
1574374567.212,50.293,86.426,62.500,49.805,110.352,0
1574374567.216,1.953,23.926,23.926,14.648,71.777,0
1574374567.220,34.180,-5.859,36.133,42.480,86.426,0
1574374567.224,56.641,31.250,62.012,57.617,82.520,0
1574374567.228,8.301,29.297,42.480,10.742,34.180,0
1574374567.231,-6.348,48.340,12.695,2.441,-11.719,0
1574374567.235,11.719,23.926,11.230,10.254,-11.230,0
1574374567.239,15.137,50.781,25.391,14.648,4.395,0
1574374567.243,43.457,43.945,53.711,59.082,19.531,0
1574374567.247,76.660,20.020,39.551,92.285,50.293,0
1574374567.251,41.992,48.828,-3.418,47.852,27.344,0
1574374567.255,10.742,51.758,29.297,16.113,-30.273,0
1574374567.259,2.930,58.105,51.758,21.973,-35.645,0
1574374567.263,28.320,79.590,39.551,52.734,-0.488,0
1574374567.267,49.316,62.500,34.668,62.988,-6.836,0
1574374567.271,14.648,-35.156,22.461,25.391,-40.527,0
1574374567.274,22.949,-3.906,35.156,24.902,-20.020,0
1574374567.278,36.133,88.867,46.875,40.527,-14.160,0
1574374567.282,32.715,57.617,44.922,50.781,-16.113,0
1574374567.286,40.527,26.367,64.941,51.270,-10.254,0
1574374567.290,26.367,-7.812,29.785,45.898,-31.250,0
1574374567.294,33.203,41.016,3.418,51.758,-16.113,0
1574374567.298,51.270,91.797,51.270,65.430,27.344,0
1574374567.302,57.617,52.246,62.988,79.102,17.578,0
1574374567.306,52.246,24.902,39.062,68.848,-10.742,0
1574374567.310,51.270,75.684,55.664,58.594,-0.488,0
1574374567.313,72.266,53.711,91.797,80.566,26.855,0
1574374567.317,65.918,-23.926,65.430,92.773,35.645,0
1574374567.321,59.082,39.062,41.992,74.219,31.250,0
1574374567.325,54.199,104.004,29.785,61.523,20.508,0
1574374567.329,52.246,53.223,5.371,74.707,1.465,0
1574374567.333,75.195,31.738,51.270,98.633,48.828,0
1574374567.337,53.223,34.668,54.199,67.871,45.410,0
1574374567.341,29.297,48.828,2.441,41.992,11.230,0
1574374567.345,66.406,62.500,56.641,83.984,39.062,0
1574374567.349,52.246,33.203,86.914,66.406,36.621,0
1574374567.353,11.719,28.809,21.484,24.902,-5.371,0
1574374567.356,48.340,60.547,15.625,60.059,8.301,0
1574374567.360,61.035,53.711,65.918,61.523,60.547,0
1574374567.364,73.242,37.598,63.477,77.148,83.984,0
1574374567.368,104.492,62.500,48.828,119.141,93.750,0
1574374567.372,65.918,69.336,38.574,71.289,46.387,0
1574374567.376,6.348,36.133,20.508,14.648,11.719,0
1574374567.380,16.602,27.344,45.898,42.969,26.367,0
1574374567.384,70.312,32.227,51.270,80.078,59.082,0
1574374567.388,75.195,25.391,27.344,77.637,78.125,0
1574374567.392,78.613,73.730,63.477,92.773,80.566,0
1574374567.396,61.035,81.543,68.359,72.754,52.734,0
1574374567.399,28.320,-2.441,25.879,33.691,17.090,0
1574374567.403,40.527,10.742,34.180,47.363,27.832,0
1574374567.407,92.285,24.414,54.688,99.609,76.660,0
1574374567.411,105.957,14.160,63.965,133.301,104.004,0
1574374567.415,27.832,75.684,50.781,62.012,43.945,0
1574374567.419,-2.441,114.258,4.883,14.648,15.625,0
1574374567.423,43.457,62.500,6.348,45.410,44.922,0
1574374567.427,78.125,0.488,24.902,83.496,77.148,0
1574374567.431,56.641,80.566,77.637,76.172,60.547,0
1574374567.435,-13.184,89.355,69.336,5.859,4.395,0
1574374567.438,-7.812,38.086,23.438,-1.953,-10.254,0
1574374567.442,49.805,5.371,33.203,53.223,27.832,0
1574374567.446,89.844,-8.301,69.824,96.680,101.074,0
1574374567.450,72.266,58.594,43.945,77.148,83.496,0
1574374567.454,79.590,49.316,32.715,81.543,67.383,0
1574374567.458,95.703,25.391,52.734,99.609,88.867,0
1574374567.462,73.242,71.777,34.180,63.477,73.730,0
1574374567.466,48.828,113.281,59.082,27.832,61.523,0
1574374567.470,36.621,36.133,46.875,36.133,34.180,0
1574374567.474,41.992,11.719,32.227,52.734,69.336,0
1574374567.478,64.453,86.914,58.594,68.359,79.102,0
1574374567.481,76.660,28.809,64.941,85.449,61.035,0
1574374567.485,82.031,7.812,53.223,104.492,86.426,0
1574374567.489,59.570,92.773,38.086,69.336,33.691,0
1574374567.493,8.789,103.516,42.480,12.695,-10.254,0
1574374567.497,32.227,33.691,53.223,34.668,36.133,0
1574374567.501,57.617,27.344,20.996,59.082,64.453,0
1574374567.505,134.277,29.297,44.434,135.254,110.840,0
1574374567.509,102.539,28.809,63.965,104.004,85.449,0
1574374567.513,-32.715,67.383,9.277,-27.832,-23.438,0
1574374567.517,48.828,38.086,64.941,42.969,51.758,0
1574374567.521,103.516,40.039,47.852,86.914,99.609,0
1574374567.524,83.496,83.008,-9.766,77.637,75.684,0
1574374567.528,105.957,41.016,55.176,96.680,89.355,0
1574374567.532,42.480,63.477,46.875,29.297,39.551,0
1574374567.536,79.102,46.387,31.250,73.730,81.055,0
1574374567.540,91.309,-21.484,56.641,85.938,88.867,0
1574374567.544,76.172,48.828,101.074,71.289,59.082,0
1574374567.548,90.820,63.965,86.426,97.168,80.566,0
1574374567.552,45.410,86.914,23.926,46.387,58.594,0
1574374567.556,71.289,38.086,52.246,60.547,70.801,0
1574374567.560,48.828,-8.301,105.957,58.594,40.039,0
1574374567.563,-11.230,33.203,31.738,-1.953,7.324,0
1574374567.567,6.836,21.484,-7.812,8.789,28.809,0
1574374567.571,31.250,67.383,36.133,36.133,58.594,0
1574374567.575,14.160,66.406,55.664,12.207,31.738,0
1574374567.579,41.992,23.926,82.031,43.945,53.223,0
1574374567.583,58.594,76.660,47.363,57.617,69.824,0
1574374567.587,24.414,59.570,50.293,17.578,53.711,0
1574374567.591,19.531,21.484,76.660,9.277,56.152,0
1574374567.595,52.734,50.293,68.359,36.133,55.664,0
1574374567.599,38.086,9.277,36.133,25.391,60.059,0
1574374567.603,41.504,-16.113,25.391,30.762,60.547,0
1574374567.606,56.641,-10.254,71.289,58.105,56.641,0
1574374567.610,30.273,34.668,60.059,37.598,61.523,0
1574374567.614,41.992,104.004,35.645,41.016,48.340,0
1574374567.618,54.199,70.312,55.176,48.828,47.363,0
1574374567.622,62.012,48.828,80.566,61.035,83.496,0
1574374567.626,62.500,75.195,59.570,93.750,75.684,0
1574374567.630,53.223,70.312,40.527,89.355,38.574,0
1574374567.634,50.781,35.156,42.969,23.438,41.504,0
1574374567.638,45.898,11.719,41.504,7.324,49.805,0
1574374567.642,35.645,4.395,63.477,27.832,36.133,0
1574374567.646,37.109,16.602,16.113,42.480,68.848,0
1574374567.649,48.340,20.996,-16.113,54.688,79.590,0
1574374567.653,52.734,77.637,72.266,54.199,45.898,0
1574374567.657,59.570,103.516,109.375,65.918,60.547,0
1574374567.661,27.832,49.316,51.758,9.277,9.277,0
1574374567.665,0.977,53.711,23.438,-31.250,-20.508,0
1574374567.669,9.766,45.410,25.391,-0.977,4.883,0
1574374567.673,27.832,-13.184,47.852,21.484,-20.996,0
1574374567.677,35.645,35.645,52.734,30.273,-11.230,0
1574374567.681,54.199,39.062,7.324,61.523,9.277,0
1574374567.685,53.711,15.625,-3.418,64.941,4.395,0
1574374567.688,36.133,107.422,44.922,57.617,0.977,0
1574374567.692,25.879,95.215,55.664,49.805,-3.418,0
1574374567.696,24.414,71.289,26.855,39.551,12.695,0
1574374567.700,40.527,57.617,4.395,57.129,-4.883,0
1574374567.704,51.758,-26.367,40.039,73.242,11.230,0
1574374567.708,41.504,3.906,62.988,60.547,5.371,0
1574374567.712,37.598,81.543,43.457,45.898,-12.207,0
1574374567.716,45.898,100.098,50.781,52.734,22.461,0
1574374567.720,37.109,36.133,36.621,57.129,24.902,0
1574374567.724,52.246,47.852,31.250,71.777,23.926,0
1574374567.728,51.758,119.141,30.273,77.637,14.648,0
1574374567.731,18.066,60.547,-8.789,67.871,-4.883,0
1574374567.735,20.020,17.090,-0.977,57.617,-6.348,0
1574374567.739,21.484,53.223,53.223,59.082,7.812,0
1574374567.743,40.527,23.926,83.496,83.008,65.918,0
1574374567.747,37.109,32.715,69.336,66.406,63.965,0
1574374567.751,32.227,89.355,44.434,62.988,22.461,0
1574374567.755,57.617,85.938,61.523,85.449,22.949,0
1574374567.759,30.273,61.523,35.156,57.617,3.418,0
1574374567.763,19.531,13.184,34.180,49.805,19.043,0
1574374567.767,36.133,15.137,60.547,81.543,21.484,0
1574374567.771,26.367,62.500,25.391,73.730,15.137,0
1574374567.774,32.715,77.637,0.977,51.270,24.902,0
1574374567.778,21.973,47.852,25.879,47.363,16.113,0
1574374567.782,23.926,16.113,27.832,64.941,32.227,0
1574374567.786,48.828,76.172,19.531,81.055,116.699,0
1574374567.790,30.762,101.074,33.691,59.570,209.961,0
1574374567.794,21.484,38.574,49.316,51.270,410.645,0
1574374567.798,29.785,13.184,41.504,49.316,626.953,0
1574374567.802,29.785,72.754,35.156,34.668,774.414,0
1574374567.806,19.531,72.754,0.000,23.438,818.359,0
1574374567.810,32.715,30.273,-36.133,42.969,649.902,0
1574374567.813,32.227,52.246,44.434,47.852,390.137,0
1574374567.817,54.688,91.797,103.027,78.613,141.602,0
1574374567.821,54.688,60.059,70.312,92.285,-95.703,0
1574374567.825,27.344,21.973,37.598,70.312,-233.887,0
1574374567.829,16.113,39.551,28.809,62.012,-263.672,0
1574374567.833,5.371,55.176,9.766,53.711,-217.285,0
1574374567.837,19.531,89.355,-11.719,63.965,-181.152,0
1574374567.841,41.504,64.941,-0.977,76.660,-145.020,0
1574374567.845,20.020,16.602,29.297,59.082,-128.418,0
1574374567.849,24.414,62.012,47.363,61.035,-113.770,0
1574374567.853,66.895,60.547,40.039,105.469,-68.848,0
1574374567.856,20.508,51.758,10.742,62.988,-115.234,0
1574374567.860,-1.465,14.648,24.414,25.391,-127.930,0
1574374567.864,26.855,6.836,54.199,52.734,-93.262,0
1574374567.868,5.859,80.566,5.859,47.852,-114.258,0
1574374567.872,-3.418,71.289,-14.160,38.086,-108.887,0
1574374567.876,19.531,67.871,40.527,55.176,-73.242,0
1574374567.880,8.789,36.621,20.020,45.898,-71.289,0
1574374567.884,12.695,3.906,42.969,48.828,-77.148,0
1574374567.888,50.293,61.035,74.707,73.242,-39.551,0
1574374567.892,19.043,112.305,39.062,49.805,-53.223,0
1574374567.896,-16.602,90.820,23.926,19.043,-89.355,0
1574374567.899,-0.488,61.523,20.020,22.949,-76.172,0
1574374567.903,16.602,69.336,22.461,49.316,-29.785,0
1574374567.907,34.668,42.480,34.180,65.918,0.000,0
1574374567.911,37.109,10.254,45.410,68.359,5.859,0
1574374567.915,20.508,43.457,41.992,46.875,6.836,0
1574374567.919,5.859,78.125,10.742,16.602,-47.852,0
1574374567.923,15.625,72.754,18.066,37.109,-51.758,0
1574374567.927,25.391,63.477,44.434,55.664,-6.836,0
1574374567.931,16.602,42.480,16.602,45.410,-28.809,0
1574374567.935,17.578,20.020,-0.488,45.898,-44.922,0
1574374567.938,26.855,46.875,13.672,45.410,-20.020,0
1574374567.942,39.062,92.285,20.996,56.641,-6.836,0
1574374567.946,18.066,43.457,23.926,46.387,-1.953,0
1574374567.950,16.602,8.789,27.832,40.039,5.859,0
1574374567.954,33.691,77.637,28.809,51.758,20.996,0
1574374567.958,43.457,68.359,49.316,68.848,46.387,0
1574374567.962,48.340,57.617,60.059,80.078,20.996,0
1574374567.966,35.156,87.891,13.672,55.664,18.066,0
1574374567.970,19.043,82.031,23.438,38.086,11.230,0
1574374567.974,14.648,1.953,60.547,37.598,-5.859,0
1574374567.978,36.133,10.254,58.105,46.875,18.066,0
1574374567.981,34.668,97.168,41.016,49.316,29.785,0
1574374567.985,4.395,83.008,-1.953,21.973,12.207,0
1574374567.989,16.602,71.777,13.184,35.645,26.855,0
1574374567.993,50.293,60.547,27.344,78.613,62.500,0
1574374567.997,34.668,64.453,28.320,55.176,39.062,0
1574374568.001,29.785,58.105,62.012,42.480,29.297,0
1574374568.005,31.738,40.039,28.320,46.387,38.086,0
1574374568.009,20.020,47.852,13.184,37.598,40.527,0
1574374568.013,30.762,65.918,56.641,42.480,35.645,0
1574374568.017,2.930,53.223,26.367,24.414,-2.930,0
1574374568.021,-1.465,46.875,-16.113,28.809,23.926,0
1574374568.024,43.457,68.359,35.645,50.293,66.406,0
1574374568.028,55.664,63.965,78.613,53.711,53.711,0
1574374568.032,36.621,83.008,51.758,42.480,52.246,0
1574374568.036,7.812,33.203,20.996,20.508,43.945,0
1574374568.040,9.766,27.344,15.137,32.227,37.598,0
1574374568.044,22.949,88.379,35.156,42.969,53.223,0
1574374568.048,27.344,62.500,45.898,32.715,71.777,0
1574374568.052,44.922,12.695,28.809,42.969,79.590,0
1574374568.056,41.016,40.039,8.789,35.156,81.055,0
1574374568.060,19.043,32.227,21.484,19.043,87.402,0
1574374568.063,14.648,-3.906,35.156,36.133,111.816,0
1574374568.067,17.090,87.402,30.762,42.969,104.492,0
1574374568.071,22.461,114.746,33.203,28.320,94.727,0
1574374568.075,33.691,70.801,34.668,25.879,95.703,0
1574374568.079,28.809,77.148,42.480,27.832,95.703,0
1574374568.083,32.715,49.316,13.672,41.016,125.000,0
1574374568.087,44.922,1.953,-37.598,56.641,136.230,0
1574374568.091,63.965,65.430,46.875,70.312,148.438,0
1574374568.095,40.527,70.312,96.680,46.387,133.301,0
1574374568.099,0.000,35.645,28.809,9.277,86.426,0
1574374568.103,-0.488,26.855,-6.348,0.977,65.918,0
1574374568.106,33.203,45.898,21.973,22.461,88.379,0
1574374568.110,30.762,91.309,31.250,20.996,97.168,0
1574374568.114,29.785,57.617,25.879,28.320,104.004,0
1574374568.118,56.641,9.277,49.805,57.129,112.305,0
1574374568.122,15.625,33.203,28.320,23.926,66.895,0
1574374568.126,13.184,100.098,19.531,12.695,62.500,0
1574374568.130,22.949,97.168,27.832,21.484,42.480,0
1574374568.134,20.508,61.523,46.875,30.273,31.738,0
1574374568.138,22.949,44.434,41.504,30.762,45.898,0
1574374568.142,13.184,62.500,20.996,25.391,13.184,0
1574374568.146,31.250,72.266,28.809,37.109,9.277,0
1574374568.149,24.414,46.387,22.949,28.809,-7.324,0
1574374568.153,15.625,8.789,22.949,20.508,-15.137,0
1574374568.157,31.738,17.578,22.461,36.621,13.184,0
1574374568.161,33.203,58.105,30.762,41.992,1.953,0
1574374568.165,26.855,62.988,41.504,29.297,-27.832,0
1574374568.169,14.160,46.387,25.879,11.719,-45.410,0
1574374568.173,24.414,67.871,22.949,23.438,-34.668,0
1574374568.177,38.574,83.496,38.086,52.734,11.230,0
1574374568.181,16.113,39.062,38.574,35.156,-0.977,0
1574374568.185,33.691,35.156,40.039,38.086,-26.855,0
1574374568.188,33.691,41.016,27.344,37.598,-23.438,0
1574374568.192,20.996,52.246,30.762,23.926,-30.762,0
1574374568.196,42.480,27.344,5.371,44.434,-38.574,0
1574374568.200,38.086,64.941,1.953,46.875,-34.668,0
1574374568.204,11.719,116.211,43.457,13.672,-51.758,0
1574374568.208,20.020,51.270,41.016,32.715,-40.039,0
1574374568.212,35.156,28.809,21.484,44.434,-6.348,0
1574374568.216,54.688,77.637,41.992,48.828,5.371,0
1574374568.220,61.523,73.730,38.086,54.199,9.766,0
1574374568.224,40.527,18.555,-13.672,38.574,3.418,0
1574374568.228,44.434,57.617,20.508,44.922,-22.949,0
1574374568.231,8.789,56.641,62.988,17.578,-34.668,0
1574374568.235,19.531,48.828,43.945,18.555,11.230,0
1574374568.239,43.945,68.359,2.441,42.969,-2.441,0
1574374568.243,25.879,72.754,27.344,38.574,-23.926,0
1574374568.247,49.316,53.711,73.242,49.805,15.137,0
1574374568.251,72.754,14.160,81.543,76.172,30.762,0
1574374568.255,34.180,75.684,50.293,50.781,14.648,0
1574374568.259,-3.906,94.727,19.043,8.789,-11.230,0
1574374568.263,1.953,61.523,5.371,2.930,-4.883,0
1574374568.267,28.809,37.598,24.414,26.367,4.395,0
1574374568.271,37.598,42.480,41.016,44.922,10.254,0
1574374568.274,39.551,-14.648,13.672,43.945,31.250,0
1574374568.278,48.340,14.160,2.930,56.641,57.617,0
1574374568.282,35.156,126.465,19.531,46.875,34.668,0
1574374568.286,30.762,86.426,33.691,23.438,17.578,0
1574374568.290,48.340,76.660,28.320,47.363,63.477,0
1574374568.294,41.504,53.223,20.996,51.758,55.176,0
1574374568.298,31.738,26.855,26.855,31.738,27.832,0
1574374568.302,23.926,45.410,18.555,24.902,33.203,0
1574374568.306,27.344,62.012,30.762,34.668,16.113,0
1574374568.310,49.805,8.789,28.320,49.805,18.066,0
1574374568.313,58.105,44.922,8.789,52.734,58.594,0
1574374568.317,32.715,110.352,30.273,41.016,38.086,0
1574374568.321,10.742,76.660,28.320,14.648,-3.418,0
1574374568.325,28.320,54.199,40.039,30.273,24.414,0
1574374568.329,62.988,-3.418,63.965,72.754,72.754,0
1574374568.333,32.715,18.555,21.484,47.852,32.227,0
1574374568.337,16.602,88.379,20.020,23.438,11.230,0
1574374568.341,33.203,52.246,49.316,37.598,25.879,0
1574374568.345,29.297,31.250,34.668,35.156,36.621,0
1574374568.349,49.805,78.613,32.715,46.875,57.129,0
1574374568.353,47.852,74.219,31.250,47.852,56.152,0
1574374568.356,24.414,63.965,16.602,15.625,52.246,0
1574374568.360,34.180,35.645,23.438,25.391,32.227,0
1574374568.364,45.898,39.551,36.133,51.270,39.551,0
1574374568.368,19.531,79.102,22.461,26.367,21.973,0
1574374568.372,35.645,24.414,27.344,40.527,34.668,0
1574374568.376,42.969,18.555,37.598,48.340,41.504,0
1574374568.380,23.926,68.848,46.387,23.438,11.719,0
1574374568.384,40.039,81.543,73.730,41.016,45.410,0
1574374568.388,37.109,78.613,42.969,55.664,59.570,0
1574374568.392,48.828,30.273,18.555,54.688,61.035,0
1574374568.396,16.113,24.902,24.902,4.883,12.695,0
1574374568.399,-11.230,83.984,15.625,-9.766,-11.230,0
1574374568.403,30.762,49.805,18.555,36.133,71.777,0
1574374568.407,39.062,16.113,-2.930,42.969,53.223,0
1574374568.411,40.039,44.434,24.902,49.316,27.832,0
1574374568.415,57.129,56.641,75.195,62.012,75.195,0
1574374568.419,21.973,80.566,46.875,21.973,37.598,0
1574374568.423,-0.977,52.734,31.738,-1.953,-9.766,0
1574374568.427,14.160,53.711,23.926,8.789,-19.531,0
1574374568.431,20.020,45.410,19.043,22.461,21.484,0
1574374568.435,21.973,25.879,18.555,37.598,26.367,0
1574374568.438,20.996,44.922,20.996,37.109,17.578,0
1574374568.442,19.531,49.316,43.945,24.414,17.578,0
1574374568.446,46.875,57.617,47.852,48.828,28.320,0
1574374568.450,46.875,37.109,31.250,52.246,38.574,0
1574374568.454,17.090,30.273,31.250,20.996,33.691,0
1574374568.458,9.277,61.035,24.414,-6.836,12.207,0
1574374568.462,15.625,64.453,17.578,-3.906,16.113,0
1574374568.466,20.020,24.414,6.348,17.090,29.785,0
1574374568.470,54.199,38.086,28.320,42.969,65.430,0
1574374568.474,59.082,77.637,21.484,53.711,74.219,0
1574374568.478,36.621,68.848,8.789,43.457,59.570,0
1574374568.481,34.668,56.152,36.133,32.227,67.871,0
1574374568.485,21.484,16.602,25.879,24.414,63.965,0
1574374568.489,20.020,40.039,43.945,31.250,64.453,0
1574374568.493,24.414,77.148,38.574,20.996,61.035,0
1574374568.497,34.180,36.621,26.367,33.203,78.125,0
1574374568.501,37.109,20.508,36.621,35.645,64.453,0
1574374568.505,23.926,60.059,32.227,16.602,38.574,0
1574374568.509,38.574,76.172,13.184,34.668,61.523,0
1574374568.513,43.457,37.109,32.715,41.016,86.914,0
1574374568.517,36.133,20.996,36.133,33.691,68.848,0
1574374568.521,44.434,71.777,-10.254,45.898,64.453,0
1574374568.524,38.086,48.340,25.879,35.156,58.594,0
1574374568.528,19.043,65.918,45.898,15.625,21.484,0
1574374568.532,35.156,63.477,28.809,33.203,50.293,0
1574374568.536,52.734,20.508,28.809,56.641,81.055,0
1574374568.540,29.297,63.965,27.832,38.086,26.855,0
1574374568.544,7.812,56.641,41.504,6.836,13.672,0
1574374568.548,6.836,63.477,41.016,5.371,21.973,0
1574374568.552,20.996,68.848,38.086,21.484,23.438,0
1574374568.556,28.809,13.672,26.367,29.297,15.137,0
1574374568.560,46.875,26.367,14.648,45.410,23.438,0
1574374568.563,61.035,54.199,-4.395,52.734,50.293,0
1574374568.567,77.148,65.918,44.434,77.148,59.570,0
1574374568.571,45.410,72.754,66.895,61.035,26.367,0
1574374568.575,5.371,66.895,21.973,15.625,-5.371,0
1574374568.579,29.297,47.852,36.621,37.109,18.066,0
1574374568.583,37.598,54.199,19.043,29.297,-0.488,0
1574374568.587,19.043,70.801,28.320,13.184,-0.977,0
1574374568.591,32.715,22.461,51.270,27.344,3.906,0
1574374568.595,45.898,-2.441,45.898,39.551,2.441,0
1574374568.599,44.922,28.320,51.758,43.457,7.324,0
1574374568.603,46.387,19.531,25.879,40.039,3.418,0
1574374568.606,42.969,47.363,18.555,43.457,0.488,0
1574374568.610,37.109,102.051,37.598,37.109,3.418,0
1574374568.614,4.395,93.262,10.742,7.324,-12.207,0
1574374568.618,22.949,6.348,6.836,26.367,35.156,0
1574374568.622,48.828,4.883,30.762,50.781,56.152,0
1574374568.626,19.531,59.082,39.062,27.344,-17.578,0
1574374568.630,26.367,45.410,44.922,33.203,-13.184,0
1574374568.634,35.645,58.594,33.203,46.875,22.949,0
1574374568.638,23.926,64.453,22.461,27.344,12.695,0
1574374568.642,44.434,58.594,35.645,44.434,19.043,0
1574374568.646,47.363,41.504,40.039,53.223,32.227,0
1574374568.649,43.457,52.734,36.133,46.387,54.199,0
1574374568.653,59.570,57.617,43.457,66.895,74.707,0
1574374568.657,-14.160,18.066,14.160,8.789,-3.418,0
1574374568.661,-12.695,41.016,-1.465,-0.488,-2.441,0
1574374568.665,41.504,85.938,12.207,36.133,33.203,0
1574374568.669,30.273,62.500,61.035,33.203,21.973,0
1574374568.673,21.484,42.969,53.711,32.715,34.668,0
1574374568.677,43.457,48.828,40.039,48.340,54.688,0
1574374568.681,40.039,42.480,53.711,40.039,77.148,0
1574374568.685,25.391,37.109,48.340,41.504,163.086,0
1574374568.688,32.227,70.312,23.926,41.992,313.965,0
1574374568.692,41.504,68.848,33.203,24.902,529.297,0
1574374568.696,52.246,27.832,27.344,26.367,702.637,0
1574374568.700,58.105,55.664,-12.695,34.180,820.801,0
1574374568.704,42.969,63.965,24.414,28.320,755.371,0
1574374568.708,25.879,52.734,27.832,11.230,484.375,0
1574374568.712,21.484,26.855,18.555,21.484,207.520,0
1574374568.716,17.090,11.230,30.273,27.832,-55.664,0
1574374568.720,24.414,21.484,37.109,28.809,-204.102,0
1574374568.724,20.508,34.668,51.270,35.156,-241.211,0
1574374568.728,19.043,81.055,41.016,36.133,-260.742,0
1574374568.731,19.531,41.504,53.711,40.039,-260.254,0
1574374568.735,10.254,44.434,33.203,30.273,-202.637,0
1574374568.739,8.789,95.215,22.949,23.926,-155.762,0
1574374568.743,20.508,69.824,34.180,40.039,-133.301,0
1574374568.747,41.992,60.547,32.227,60.547,-104.004,0
1574374568.751,34.180,21.484,28.809,46.387,-79.590,0
1574374568.755,28.320,21.484,34.668,36.133,-79.102,0
1574374568.759,28.320,63.477,39.551,40.527,-84.473,0
1574374568.763,24.902,68.359,10.254,43.457,-66.406,0
1574374568.767,34.180,64.453,32.715,48.828,-29.297,0
1574374568.771,32.227,27.344,68.848,37.598,-40.527,0
1574374568.774,7.324,20.020,39.551,18.066,-51.270,0
1574374568.778,3.906,61.035,45.898,24.414,-25.391,0
1574374568.782,13.184,75.195,53.223,24.902,-51.270,0
1574374568.786,17.090,59.082,18.555,27.832,-46.387,0
1574374568.790,24.902,37.598,19.043,41.504,-10.254,0
1574374568.794,29.785,38.086,35.645,42.480,-11.230,0
1574374568.798,27.832,62.988,1.953,41.504,-31.738,0
1574374568.802,41.504,7.324,12.695,44.922,-11.230,0
1574374568.806,28.809,3.418,27.832,30.762,-7.812,0
1574374568.810,18.555,93.262,35.645,25.879,-19.531,0
1574374568.813,31.250,75.684,54.688,33.691,15.137,0
1574374568.817,27.832,46.875,26.855,30.762,-1.953,0
1574374568.821,35.156,62.988,-2.441,40.527,5.859,0
1574374568.825,19.531,43.457,14.160,22.949,9.277,0
1574374568.829,30.273,21.973,55.176,31.738,9.766,0
1574374568.833,39.062,34.180,4.883,34.180,50.781,0
1574374568.837,32.715,61.035,15.625,30.762,15.137,0
1574374568.841,24.414,85.449,53.223,28.320,-17.578,0
1574374568.845,36.133,80.078,59.570,42.480,9.766,0
1574374568.849,36.621,47.363,37.109,50.293,15.625,0
1574374568.853,26.855,33.691,13.184,37.109,21.484,0
1574374568.856,30.273,39.551,28.320,39.062,26.855,0
1574374568.860,14.648,47.363,18.066,11.719,-0.977,0
1574374568.864,4.395,71.289,38.574,0.488,0.977,0
1574374568.868,11.719,74.707,24.902,24.902,25.391,0
1574374568.872,28.809,41.504,16.602,40.527,23.438,0
1574374568.876,30.762,46.875,31.738,49.316,37.109,0
1574374568.880,34.180,43.457,36.621,51.758,51.758,0
1574374568.884,22.461,-19.043,14.160,19.531,19.531,0
1574374568.888,22.949,23.438,17.090,24.902,15.137,0
1574374568.892,47.363,100.586,50.293,50.781,71.289,0
1574374568.896,28.809,76.172,39.551,30.762,57.129,0
1574374568.899,18.066,52.734,35.156,20.508,40.527,0
1574374568.903,29.297,62.500,16.602,32.227,66.895,0
1574374568.907,22.949,43.945,-3.906,20.020,42.480,0
1574374568.911,57.617,53.223,62.012,45.898,49.316,0
1574374568.915,47.852,54.688,64.453,45.898,55.176,0
1574374568.919,4.395,18.066,18.066,4.395,51.270,0
1574374568.923,16.602,53.223,30.762,18.555,66.406,0
1574374568.927,33.691,83.008,19.531,32.227,39.062,0
1574374568.931,41.504,66.406,29.297,43.457,44.922,0
1574374568.935,54.688,70.801,57.129,50.781,76.660,0
1574374568.938,37.598,50.781,38.574,26.367,65.918,0
1574374568.942,26.855,26.367,20.996,29.297,59.082,0
1574374568.946,44.922,32.227,39.551,57.129,104.492,0
1574374568.950,47.363,46.875,19.531,60.547,133.301,0
1574374568.954,31.738,39.062,15.137,41.992,96.680,0
1574374568.958,20.508,60.059,4.395,30.273,101.074,0
1574374568.962,7.812,73.730,7.324,21.973,113.281,0
1574374568.966,19.043,71.777,62.012,27.832,99.121,0
1574374568.970,23.438,62.500,62.500,22.949,126.465,0
1574374568.974,12.695,19.043,19.043,15.137,118.164,0
1574374568.978,39.551,45.898,16.602,41.504,106.934,0
1574374568.981,46.387,61.035,58.594,40.527,120.605,0
1574374568.985,20.996,29.785,41.504,26.855,114.746,0
1574374568.989,30.762,49.805,11.719,34.180,125.000,0
1574374568.993,41.016,73.730,22.949,34.668,131.836,0
1574374568.997,34.668,70.801,48.828,36.133,123.047,0
1574374569.001,35.645,58.594,48.340,39.551,112.305,0
1574374569.005,31.250,64.941,35.156,38.086,117.676,0
1574374569.009,29.785,25.391,34.180,35.156,124.023,0
1574374569.013,33.203,-7.324,50.293,39.062,97.168,0
1574374569.017,36.133,-11.719,-7.324,41.504,98.633,0
1574374569.021,59.570,33.691,-0.488,59.570,130.371,0
1574374569.024,46.387,113.281,67.383,53.711,92.285,0
1574374569.028,18.555,92.285,17.090,26.855,43.457,0
1574374569.032,9.766,50.293,4.395,13.672,35.645,0
1574374569.036,-7.324,47.363,17.578,-0.488,9.277,0
1574374569.040,7.324,42.969,23.926,15.625,-11.719,0
1574374569.044,20.996,9.766,44.434,32.715,-11.230,0
1574374569.048,12.207,38.574,48.828,20.996,-13.672,0
1574374569.052,21.973,40.527,31.250,33.203,-4.883,0
1574374569.056,56.641,30.273,54.199,73.242,23.438,0
1574374569.060,39.062,42.480,36.621,51.758,-12.695,0
1574374569.063,14.160,52.734,-21.973,29.297,-42.480,0
1574374569.067,28.320,38.086,24.414,44.922,-44.434,0
1574374569.071,23.438,0.000,49.316,32.715,-50.293,0
1574374569.075,18.066,16.602,13.184,25.879,-40.527,0
1574374569.079,28.809,71.289,30.273,43.457,-27.344,0
1574374569.083,4.395,74.707,21.484,4.883,-57.129,0
1574374569.087,-2.930,75.684,11.230,-2.441,-74.219,0
1574374569.091,20.996,79.590,12.695,39.551,-54.688,0
1574374569.095,32.227,47.852,3.418,42.480,-34.668,0
1574374569.099,38.574,7.812,38.574,49.805,4.883,0
1574374569.103,28.320,14.648,49.805,41.016,-1.953,0
1574374569.106,11.719,52.246,45.898,20.508,-37.109,0
1574374569.110,19.043,56.152,31.250,24.902,-33.691,0
1574374569.114,15.625,41.992,21.973,25.391,-35.645,0
1574374569.118,11.719,14.648,25.391,25.391,-32.715,0
1574374569.122,22.949,-21.484,21.484,22.461,-24.902,0
1574374569.126,40.039,13.672,21.484,33.691,-1.953,0
1574374569.130,58.105,89.355,26.367,61.523,32.715,0
1574374569.134,47.363,88.379,40.527,60.059,15.137,0
1574374569.138,18.555,40.039,27.832,23.438,-29.297,0
1574374569.142,22.461,52.734,19.043,16.602,-14.160,0
1574374569.146,37.109,59.082,26.367,33.203,8.789,0
1574374569.149,45.898,31.250,38.086,42.480,32.227,0
1574374569.153,29.297,12.695,32.227,27.344,-1.953,0
1574374569.157,18.066,31.738,28.320,23.438,-9.277,0
1574374569.161,15.625,51.270,11.719,15.625,-1.465,0
1574374569.165,31.250,41.992,-5.859,19.531,-3.418,0
1574374569.169,32.715,59.082,31.250,47.363,41.016,0
1574374569.173,33.203,69.336,55.176,57.617,24.414,0
1574374569.177,35.645,33.203,33.691,47.363,9.766,0
1574374569.181,33.691,26.855,36.621,39.062,24.414,0
1574374569.185,30.273,45.410,51.270,40.039,40.527,0
1574374569.188,12.207,55.176,40.039,29.297,23.438,0
1574374569.192,27.832,42.969,35.645,36.133,23.926,0
1574374569.196,59.082,40.039,35.645,69.336,41.992,0
1574374569.200,52.246,55.176,-0.488,65.918,42.969,0
1574374569.204,12.207,79.590,15.625,30.762,7.324,0
1574374569.208,28.809,61.523,63.477,39.062,22.949,0
1574374569.212,59.082,50.293,57.129,55.176,58.105,0
1574374569.216,42.969,34.668,54.199,47.852,34.180,0
1574374569.220,28.320,20.508,39.062,30.273,16.602,0
1574374569.224,23.438,80.566,26.367,9.277,-10.254,0
1574374569.228,40.527,81.055,45.898,39.551,11.230,0
1574374569.231,45.898,57.129,65.430,78.125,58.105,0
1574374569.235,53.223,48.340,74.707,78.125,64.941,0
1574374569.239,52.734,24.902,38.574,53.711,65.430,0
1574374569.243,19.043,22.461,0.977,16.113,6.836,0
1574374569.247,26.855,76.172,31.738,46.387,14.160,0
1574374569.251,57.129,52.246,49.805,69.336,49.316,0
1574374569.255,53.223,39.062,20.020,35.645,26.367,0
1574374569.259,34.668,73.730,-35.156,14.648,20.996,0
1574374569.263,41.016,64.453,35.645,35.645,66.895,0
1574374569.267,41.992,57.617,107.910,45.898,45.410,0
1574374569.271,43.457,42.480,73.242,43.457,13.672,0
1574374569.274,53.711,16.602,71.289,77.148,40.039,0
1574374569.278,52.734,-29.297,72.754,61.523,29.785,0
1574374569.282,27.832,40.527,46.875,26.855,20.020,0
1574374569.286,19.043,104.492,27.832,21.973,41.992,0
1574374569.290,52.246,82.520,42.969,48.340,93.750,0
1574374569.294,40.527,72.266,50.293,53.223,45.410,0
1574374569.298,1.465,54.688,8.789,8.301,-19.043,0
1574374569.302,0.488,3.418,15.137,17.578,-14.160,0
1574374569.306,-15.137,-13.672,41.992,29.297,-24.902,0
1574374569.310,-5.859,24.902,46.875,20.996,-21.484,0
1574374569.313,52.246,27.832,12.207,50.293,20.020,0
1574374569.317,67.871,14.648,-9.766,72.266,94.727,0
1574374569.321,-2.441,69.824,22.461,17.090,23.438,0
1574374569.325,-25.879,111.816,50.293,-8.789,-58.105,0
1574374569.329,5.371,35.156,51.270,26.855,-24.414,0
1574374569.333,22.949,-44.922,30.273,54.688,9.277,0
1574374569.337,35.156,20.996,58.594,62.500,14.160,0
1574374569.341,-1.465,93.750,37.598,14.160,-19.531,0
1574374569.345,-46.875,89.844,18.066,-33.203,-56.641,0
1574374569.349,-9.277,51.758,47.852,3.906,-21.973,0
1574374569.353,36.133,-13.184,62.988,31.250,15.625,0
1574374569.356,24.902,-9.766,60.059,16.602,3.418,0
1574374569.360,-0.977,77.148,24.414,-4.395,2.930,0
1574374569.364,4.395,50.293,-17.090,-6.836,4.395,0
1574374569.368,48.340,23.926,3.906,43.945,34.180,0
1574374569.372,27.344,99.609,35.645,27.344,15.137,0
1574374569.376,-6.836,99.121,33.203,-26.367,-12.695,0
1574374569.380,8.301,43.945,8.301,-33.203,1.953,0
1574374569.384,26.855,34.180,15.625,-7.324,15.137,0
1574374569.388,7.324,64.941,-8.301,-5.371,31.738,0
1574374569.392,-10.742,47.852,-19.531,-36.133,0.488,0
1574374569.396,1.465,22.461,49.805,-31.250,-27.344,0
1574374569.399,20.508,-3.418,62.500,12.695,10.254,0
1574374569.403,29.785,30.762,40.039,22.949,44.922,0
1574374569.407,20.508,98.145,-2.441,5.371,12.207,0
1574374569.411,4.395,96.191,19.531,0.000,-35.156,0
1574374569.415,23.438,-13.184,64.453,33.691,4.883,0
1574374569.419,47.852,-33.203,59.570,41.992,46.387,0
1574374569.423,5.371,98.145,32.227,-4.883,22.949,0
1574374569.427,9.277,56.641,26.855,8.789,12.695,0
1574374569.431,36.621,6.348,33.203,17.578,33.691,0
1574374569.435,19.531,33.203,26.367,9.277,40.039,0
1574374569.438,35.156,14.160,39.062,35.156,35.645,0
1574374569.442,46.387,61.523,45.898,36.133,61.035,0
1574374569.446,1.953,104.980,16.113,0.977,44.434,0
1574374569.450,14.648,75.195,12.207,5.371,19.043,0
1574374569.454,37.109,47.852,55.176,41.016,2.441,0
1574374569.458,2.441,43.457,47.852,23.438,-29.297,0
1574374569.462,13.672,53.711,29.785,15.137,1.953,0
1574374569.466,26.855,34.180,33.203,31.250,14.160,0
1574374569.470,44.922,-11.719,42.480,55.664,25.391,0
1574374569.474,61.523,41.504,55.176,79.102,43.945,0
1574374569.478,45.410,57.617,28.809,66.406,16.113,0
1574374569.481,45.898,44.434,34.180,58.105,25.879,0
1574374569.485,47.363,104.980,47.852,41.992,25.391,0
1574374569.489,27.832,93.262,39.551,26.855,-23.438,0
1574374569.493,2.441,44.922,34.180,21.973,-24.414,0
1574374569.497,12.695,3.906,43.457,33.203,-18.555,0
1574374569.501,36.133,16.113,42.969,53.711,-12.695,0
1574374569.505,49.805,40.527,8.789,69.336,21.973,0
1574374569.509,35.156,51.270,33.203,66.895,21.484,0
1574374569.513,-1.465,78.613,35.645,31.250,-32.227,0
1574374569.517,4.883,73.242,50.293,31.738,-9.766,0
1574374569.521,20.020,50.781,81.055,48.340,10.254,0
1574374569.524,0.977,13.184,27.344,18.555,-47.852,0
1574374569.528,20.508,18.555,14.648,18.066,-35.645,0
1574374569.532,45.410,61.523,42.969,43.945,41.016,0
1574374569.536,23.438,80.566,-17.578,38.086,25.879,0
1574374569.540,42.480,40.039,-1.953,47.363,-2.930,0
1574374569.544,50.781,47.363,73.730,60.547,28.809,0
1574374569.548,20.020,37.109,71.289,42.480,-8.789,0
1574374569.552,-5.371,22.461,46.387,-6.348,-55.664,0
1574374569.556,-29.785,75.195,11.230,-37.109,-71.777,0
1574374569.560,-15.137,33.691,5.371,1.465,-33.203,0
1574374569.563,44.434,-4.395,41.504,70.801,53.223,0
1574374569.567,18.555,62.500,20.020,30.762,9.766,0
1574374569.571,4.395,51.758,15.137,1.953,-50.293,0
1574374569.575,40.527,51.270,30.273,40.527,5.371,0
1574374569.579,25.879,102.539,37.109,36.133,69.824,0
1574374569.583,-20.996,64.941,31.738,-15.625,125.977,0
1574374569.587,1.465,-0.488,-13.184,-15.625,298.828,0
1574374569.591,38.086,10.742,32.227,19.531,532.227,0
1574374569.595,23.926,41.504,64.453,25.391,663.086,0
1574374569.599,31.250,18.066,52.734,24.902,728.027,0
1574374569.603,-0.977,63.477,41.992,-11.230,595.215,0
1574374569.606,-30.273,104.980,20.508,-19.043,320.312,0
1574374569.610,-16.602,68.359,10.742,-8.789,76.660,0
1574374569.614,0.977,29.785,41.016,9.766,-120.605,0
1574374569.618,20.508,0.000,45.410,44.434,-220.703,0
1574374569.622,19.531,-12.695,32.715,52.734,-263.672,0
1574374569.626,3.906,37.109,26.367,22.461,-270.508,0
1574374569.630,22.949,64.941,25.879,25.879,-197.754,0
1574374569.634,42.480,27.832,33.691,48.828,-125.000,0
1574374569.638,40.527,22.461,23.926,45.898,-86.426,0
1574374569.642,24.414,74.707,19.043,20.020,-74.219,0
1574374569.646,18.066,59.082,27.832,17.578,-95.703,0
1574374569.649,36.621,4.883,29.785,45.410,-83.008,0
1574374569.653,58.105,42.480,42.480,63.965,-72.754,0
1574374569.657,43.457,42.969,44.434,50.293,-72.266,0
1574374569.661,49.805,-24.902,36.621,51.270,-60.059,0
1574374569.665,68.848,25.391,33.203,66.406,-35.156,0
1574374569.669,27.832,105.469,30.762,30.273,-27.832,0
1574374569.673,-0.977,119.141,38.086,14.160,-47.852,0
1574374569.677,-1.465,47.363,28.809,9.277,-74.707,0
1574374569.681,30.273,0.488,18.066,14.648,-48.828,0
1574374569.685,39.062,31.738,13.184,40.039,-7.812,0
1574374569.688,24.414,32.227,14.160,40.039,-5.371,0
1574374569.692,90.332,79.590,40.039,92.285,46.875,0
1574374569.696,108.398,44.922,44.922,117.188,50.781,0
1574374569.700,6.348,13.672,18.555,17.090,-64.941,0
1574374569.704,-10.254,69.824,26.367,-19.043,-74.707,0
1574374569.708,35.156,59.570,46.387,21.484,-12.695,0
1574374569.712,-7.324,53.711,11.719,3.906,-30.762,0
1574374569.716,-19.043,54.199,0.000,-2.441,-37.109,0
1574374569.720,29.785,-1.953,11.230,50.781,1.465,0
1574374569.724,49.805,2.930,63.477,73.730,19.531,0
1574374569.728,56.641,-18.066,49.805,50.781,8.301,0
1574374569.731,98.145,67.871,24.414,89.355,58.594,0
1574374569.735,94.238,166.504,89.355,107.422,84.961,0
1574374569.739,8.301,61.523,35.645,26.855,8.301,0
1574374569.743,-33.203,34.180,-19.043,-15.137,-27.344,0
1574374569.747,-4.883,63.477,24.902,0.488,-21.484,0
1574374569.751,16.602,-78.125,41.992,15.137,-21.973,0
1574374569.755,-1.953,-50.781,-3.906,-0.977,-26.367,0
1574374569.759,66.895,160.156,20.996,63.477,35.645,0
1574374569.763,54.199,112.793,59.082,71.289,35.156,0
1574374569.767,-25.879,20.996,36.133,-10.254,-0.488,0
1574374569.771,59.082,23.438,67.871,42.480,50.781,0
1574374569.774,96.680,65.430,67.383,95.215,67.871,0
1574374569.778,29.297,100.098,16.113,37.109,27.832,0
1574374569.782,-5.371,75.195,3.906,-8.301,-4.883,0
1574374569.786,-5.859,-3.418,22.461,-8.789,-8.789,0
1574374569.790,16.113,-45.898,16.113,19.043,23.438,0
1574374569.794,85.449,95.215,41.504,92.285,103.027,0
1574374569.798,78.125,70.312,65.430,77.637,90.820,0
1574374569.802,68.848,8.789,73.730,79.102,75.684,0
1574374569.806,37.109,107.910,65.430,48.828,47.852,0
1574374569.810,28.320,96.680,47.852,22.461,30.762,0
1574374569.813,15.137,30.762,20.020,22.949,18.555,0
1574374569.817,-21.973,38.574,-17.090,-13.184,-8.789,0
1574374569.821,13.672,35.645,33.691,26.367,15.625,0
1574374569.825,2.930,-18.066,26.367,20.996,11.230,0
1574374569.829,17.578,33.203,20.996,26.367,53.711,0
1574374569.833,34.180,87.402,40.039,43.945,61.035,0
1574374569.837,55.176,83.008,39.062,61.035,69.336,0
1574374569.841,61.523,62.500,37.598,68.848,99.121,0
1574374569.845,54.688,8.301,56.152,62.500,87.891,0
1574374569.849,62.012,27.344,62.012,68.848,96.191,0
1574374569.853,27.344,98.633,-11.230,41.992,88.379,0
1574374569.856,33.691,56.152,-10.254,38.086,105.957,0
1574374569.860,48.828,6.836,71.777,42.480,104.004,0
1574374569.864,41.016,41.992,75.195,44.922,88.379,0
1574374569.868,18.066,54.199,58.594,53.223,90.332,0
1574374569.872,1.953,40.039,36.133,33.203,98.145,0
1574374569.876,6.836,38.574,42.480,32.227,106.445,0
1574374569.880,45.898,41.992,48.340,62.988,156.738,0
1574374569.884,64.453,42.480,19.043,63.965,174.316,0
1574374569.888,52.246,67.383,36.133,60.059,122.070,0
1574374569.892,32.227,20.508,47.852,55.664,109.375,0
1574374569.896,31.250,-10.742,24.414,38.574,129.395,0
1574374569.899,36.621,25.391,3.418,47.852,133.301,0
1574374569.903,83.496,48.828,60.059,111.816,159.180,0
1574374569.907,78.125,24.414,90.332,92.285,145.508,0
1574374569.911,14.648,69.336,-23.438,18.555,90.820,0
1574374569.915,59.082,139.648,-8.789,70.801,107.422,0
1574374569.919,52.246,113.770,91.797,77.637,106.934,0
1574374569.923,1.465,17.090,63.477,36.133,61.523,0
1574374569.927,-1.953,24.902,45.898,34.668,39.062,0
1574374569.931,35.645,29.785,66.895,49.316,55.176,0
1574374569.935,100.098,25.391,67.871,104.980,86.914,0
1574374569.938,40.039,73.730,14.160,62.500,29.785,0
1574374569.942,-13.184,31.738,0.977,6.836,-1.465,0
1574374569.946,19.531,38.574,54.199,44.434,13.672,0
1574374569.950,34.668,89.844,47.852,62.988,2.930,0
1574374569.954,94.238,106.445,50.781,111.328,45.898,0
1574374569.958,62.988,14.648,20.020,78.613,26.855,0
1574374569.962,5.859,-11.719,-16.602,11.719,-44.922,0
1574374569.966,18.066,66.406,44.922,18.555,-51.758,0
1574374569.970,6.348,91.309,68.848,27.832,-46.387,0
1574374569.974,8.301,34.668,24.414,35.645,-32.227,0
1574374569.978,45.898,28.809,45.898,52.246,10.254,0
1574374569.981,98.145,96.680,102.051,108.398,43.945,0
1574374569.985,47.363,6.836,32.715,71.289,-19.531,0
1574374569.989,-16.602,-39.551,-14.648,6.836,-54.688,0
1574374569.993,6.836,28.320,26.855,33.203,-12.695,0
1574374569.997,44.434,94.238,48.828,68.848,8.301,0
1574374570.001,36.621,93.262,28.809,46.387,-23.926,0
1574374570.005,12.207,43.945,-20.996,27.344,-35.645,0
1574374570.009,72.266,33.203,-5.371,99.121,65.430,0
1574374570.013,53.711,15.625,48.340,80.566,41.016,0
1574374570.017,-5.859,36.621,67.383,21.973,-32.227,0
1574374570.021,18.066,63.965,61.523,38.574,-14.648,0
1574374570.024,30.273,89.355,55.664,55.176,7.324,0
1574374570.028,14.648,56.152,44.434,38.086,-10.742,0
1574374570.032,5.371,21.973,-3.906,25.879,-8.301,0
1574374570.036,21.484,64.941,-2.930,35.645,-0.977,0
1574374570.040,38.086,44.434,46.387,47.852,12.695,0
1574374570.044,52.246,-10.254,52.734,63.965,26.367,0
1574374570.048,61.523,17.090,29.297,72.754,40.039,0
1574374570.052,26.367,71.777,12.207,46.387,27.832,0
1574374570.056,6.836,80.566,28.320,31.738,-5.371,0
1574374570.060,29.785,68.359,46.387,53.223,21.973,0
1574374570.063,42.480,50.781,25.391,67.871,41.992,0
1574374570.067,36.133,2.930,15.625,55.176,35.156,0
1574374570.071,26.855,21.973,31.250,37.109,31.738,0
1574374570.075,5.371,70.312,36.133,16.113,25.391,0
1574374570.079,-13.672,55.176,13.184,-5.859,4.883,0
1574374570.083,6.348,18.066,8.301,9.766,1.953,0
1574374570.087,28.809,45.898,46.875,31.250,7.812,0
1574374570.091,15.137,64.941,50.293,25.391,1.953,0
1574374570.095,19.531,33.691,33.203,36.621,63.477,0
1574374570.099,66.406,64.941,46.387,86.426,81.543,0
1574374570.103,37.109,65.918,37.598,64.453,24.902,0
1574374570.106,2.930,3.906,39.551,31.738,20.996,0
1574374570.110,28.809,45.410,31.738,33.203,34.668,0
1574374570.114,24.414,95.703,7.324,22.461,16.602,0
1574374570.118,40.039,-17.090,20.020,41.504,35.156,0
1574374570.122,30.762,-8.789,22.949,37.598,32.227,0
1574374570.126,17.578,111.816,37.598,33.203,20.020,0
1574374570.130,28.809,99.609,20.020,43.945,50.293,0
1574374570.134,13.184,33.691,9.766,23.926,20.996,0
1574374570.138,27.832,39.062,46.387,24.414,12.695,0
1574374570.142,40.527,42.480,61.523,36.133,23.438,0
1574374570.146,23.926,37.598,46.875,35.156,25.879,0
1574374570.149,32.227,66.895,23.438,47.363,43.457,0
1574374570.153,62.012,45.410,-3.418,77.148,59.570,0
1574374570.157,41.504,40.527,23.926,46.875,44.434,0
1574374570.161,0.488,52.246,68.359,-3.418,0.488,0
1574374570.165,20.020,57.129,42.480,31.250,28.809,0
1574374570.169,27.344,49.316,20.508,45.898,44.434,0
1574374570.173,36.133,38.086,61.035,50.781,41.504,0
1574374570.177,53.223,52.734,73.730,62.988,60.059,0
1574374570.181,29.297,61.523,33.691,34.668,55.664,0
1574374570.185,20.508,44.922,7.812,26.855,46.875,0
1574374570.188,38.574,29.297,26.855,54.199,33.691,0
1574374570.192,31.738,41.992,29.785,47.363,16.113,0
1574374570.196,15.137,88.867,11.719,37.109,41.504,0
1574374570.200,29.297,70.312,9.766,41.016,53.223,0
1574374570.204,38.574,46.875,29.297,43.457,29.297,0
1574374570.208,44.434,41.016,62.012,57.129,28.320,0
1574374570.212,28.809,-21.484,63.477,30.273,24.902,0
1574374570.216,9.766,19.043,44.434,10.742,16.113,0
1574374570.220,3.906,70.312,2.441,13.672,-6.348,0
1574374570.224,22.949,91.797,23.926,34.180,29.785,0
1574374570.228,30.762,101.074,52.734,35.645,41.992,0
1574374570.231,4.395,63.965,30.762,10.254,1.953,0
1574374570.235,9.766,50.781,24.902,11.719,4.395,0
1574374570.239,26.855,35.645,18.066,32.227,14.160,0
1574374570.243,26.855,27.344,-15.137,37.109,12.207,0
1574374570.247,17.090,7.812,-2.930,44.922,35.156,0
1574374570.251,24.902,44.434,63.965,52.246,46.387,0
1574374570.255,37.109,73.242,68.359,46.875,45.898,0
1574374570.259,27.832,74.219,55.176,34.180,24.902,0
1574374570.263,-1.465,58.105,31.250,0.000,-18.555,0
1574374570.267,23.438,38.086,34.668,22.949,37.109,0
1574374570.271,25.879,42.480,51.270,36.133,43.945,0
1574374570.274,30.273,29.297,18.555,34.668,71.777,0
1574374570.278,60.547,55.176,8.301,62.988,125.977,0
1574374570.282,19.531,31.738,24.414,24.902,60.547,0
1574374570.286,21.484,-3.906,54.688,24.414,45.410,0
1574374570.290,39.062,73.730,70.801,33.691,80.078,0
1574374570.294,-0.488,96.680,39.551,-0.488,38.574,0
1574374570.298,-4.395,58.594,18.555,15.625,12.207,0
1574374570.302,20.020,50.293,14.648,34.668,41.992,0
1574374570.306,60.547,25.879,23.926,71.289,68.359,0
1574374570.310,57.617,35.645,45.410,74.219,58.105,0
1574374570.313,3.906,69.336,20.996,13.184,21.973,0
1574374570.317,27.832,61.035,19.043,21.973,47.363,0
1574374570.321,35.156,35.645,26.367,39.062,52.246,0
1574374570.325,22.461,56.152,22.461,25.879,30.273,0
1574374570.329,17.578,70.312,27.832,14.160,25.879,0
1574374570.333,56.641,90.820,50.293,62.500,74.707,0
1574374570.337,75.684,53.223,32.715,83.008,90.820,0
1574374570.341,21.484,-5.859,3.418,23.926,40.039,0
1574374570.345,8.789,10.254,42.480,20.020,37.598,0
1574374570.349,29.785,43.457,48.828,39.062,35.645,0
1574374570.353,16.113,83.984,14.160,28.809,14.160,0
1574374570.356,20.020,40.039,15.137,32.715,8.789,0
1574374570.360,30.762,29.297,31.738,48.828,11.230,0
1574374570.364,35.645,63.965,42.480,32.715,10.254,0
1574374570.368,48.340,73.242,35.645,33.203,1.465,0
1574374570.372,60.059,80.566,27.344,73.242,28.809,0
1574374570.376,43.457,37.598,22.461,63.965,28.320,0
1574374570.380,26.367,16.113,41.016,39.062,-7.324,0
1574374570.384,33.203,22.949,43.945,39.062,-11.230,0
1574374570.388,39.551,24.902,23.438,56.152,9.766,0
1574374570.392,26.855,55.176,5.371,35.156,6.836,0
1574374570.396,18.555,57.129,17.090,10.742,-15.625,0
1574374570.399,40.039,35.156,69.824,53.223,18.066,0
1574374570.403,49.805,84.961,54.688,50.293,49.316,0
1574374570.407,27.344,72.266,28.809,21.484,6.836,0
1574374570.411,27.344,45.410,23.438,40.039,-2.441,0
1574374570.415,52.734,44.922,30.762,61.523,43.457,0
1574374570.419,53.711,62.988,52.734,67.871,31.738,0
1574374570.423,31.738,60.059,24.902,44.922,-1.953,0
1574374570.427,-0.977,13.184,-5.859,-2.930,-14.160,0
1574374570.431,32.227,-11.230,7.812,31.738,30.273,0
1574374570.435,63.965,20.508,30.762,79.102,44.434,0
1574374570.438,24.414,105.957,32.227,38.086,6.348,0
1574374570.442,6.348,115.723,33.203,1.465,-4.395,0
1574374570.446,17.090,62.988,25.391,14.160,1.953,0
1574374570.450,10.254,12.207,3.906,28.809,27.832,0
1574374570.454,30.273,10.742,20.508,39.551,64.941,0
1574374570.458,47.852,49.805,37.109,46.387,44.434,0
1574374570.462,38.574,47.363,22.461,47.363,50.293,0
1574374570.466,13.184,21.484,16.113,23.438,16.602,0
1574374570.470,18.066,12.695,35.645,23.926,3.418,0
1574374570.474,25.391,40.527,42.480,35.645,20.020,0
1574374570.478,29.785,60.059,35.645,36.133,33.691,0
1574374570.481,36.621,72.754,15.137,18.066,132.324,0
1574374570.485,38.574,73.242,12.695,6.836,272.461,0
1574374570.489,46.387,70.312,32.715,32.715,484.863,0
1574374570.493,45.898,13.184,17.578,37.598,699.219,0
1574374570.497,62.012,5.859,25.879,39.062,828.125,0
1574374570.501,43.945,46.387,42.480,30.762,779.297,0
1574374570.505,18.066,76.172,11.230,20.996,544.922,0
1574374570.509,20.996,88.379,20.508,27.832,265.137,0
1574374570.513,31.250,36.133,26.855,35.645,1.953,0
1574374570.517,46.875,-5.371,39.062,55.664,-142.090,0
1574374570.521,18.555,18.555,40.527,34.180,-227.051,0
1574374570.524,0.000,64.453,25.391,13.672,-284.668,0
1574374570.528,39.551,77.148,49.316,55.664,-197.754,0
1574374570.532,30.762,39.551,23.926,47.363,-172.363,0
1574374570.536,24.414,31.250,0.977,41.504,-144.531,0
1574374570.540,43.457,61.035,11.230,47.363,-87.402,0
1574374570.544,22.949,23.438,26.855,16.113,-130.371,0
1574374570.548,3.418,11.719,37.109,7.812,-128.418,0
1574374570.552,16.113,50.781,23.926,14.648,-113.770,0
1574374570.556,29.785,86.426,44.434,43.945,-78.613,0
1574374570.560,12.207,47.852,28.809,37.109,-68.848,0
1574374570.563,6.348,32.227,7.812,19.531,-77.637,0
1574374570.567,20.020,37.598,32.227,31.250,-66.895,0
1574374570.571,45.410,12.695,51.270,54.199,-31.738,0
1574374570.575,56.641,46.875,28.320,53.223,-31.738,0
1574374570.579,44.434,53.711,5.859,53.711,-18.555,0
1574374570.583,35.645,41.016,35.645,61.523,11.719,0
1574374570.587,19.043,87.891,50.781,26.367,-41.992,0
1574374570.591,-2.441,72.754,31.250,8.789,-56.152,0
1574374570.595,17.578,41.016,20.996,27.344,-20.996,0
1574374570.599,47.363,18.066,31.738,52.246,-5.859,0
1574374570.603,49.805,19.531,42.480,59.082,9.277,0
1574374570.606,21.484,30.273,27.344,21.973,-9.277,0
1574374570.610,24.902,43.945,19.043,36.621,-12.695,0
1574374570.614,43.457,34.668,23.438,70.801,51.758,0
1574374570.618,31.250,56.641,30.762,42.969,27.832,0
1574374570.622,13.672,94.727,43.945,13.184,-44.434,0
1574374570.626,6.836,46.387,-15.137,8.789,-22.461,0
1574374570.630,36.621,35.156,21.973,41.992,19.043,0
1574374570.634,34.668,59.082,93.750,37.598,26.367,0
1574374570.638,30.273,19.531,61.035,31.250,25.391,0
1574374570.642,57.129,27.344,51.758,59.082,34.668,0
1574374570.646,37.109,66.895,36.133,47.852,27.832,0
1574374570.649,15.137,53.711,24.414,22.461,14.160,0
1574374570.653,41.016,8.789,39.062,52.246,39.551,0
1574374570.657,57.617,36.621,52.246,75.195,35.156,0
1574374570.661,53.711,95.703,55.176,44.434,37.109,0
1574374570.665,44.434,70.312,42.480,44.922,62.500,0
1574374570.669,47.363,41.992,3.906,71.289,57.129,0
1574374570.673,45.410,50.293,2.930,43.457,54.688,0
1574374570.677,17.090,55.176,15.625,9.277,12.207,0
1574374570.681,17.090,42.969,24.902,25.879,10.742,0
1574374570.685,36.133,29.785,72.266,45.410,44.434,0
1574374570.688,45.898,35.645,67.871,50.293,38.086,0
1574374570.692,30.762,19.531,31.738,29.785,28.320,0
1574374570.696,15.137,20.020,27.832,18.066,17.090,0
1574374570.700,38.086,85.449,43.945,38.086,60.059,0
1574374570.704,43.457,63.965,28.809,46.875,63.477,0
1574374570.708,22.461,47.852,6.348,49.316,56.152,0
1574374570.712,27.344,53.711,18.066,38.086,63.477,0
1574374570.716,34.180,22.461,33.691,38.574,59.082,0
1574374570.720,18.555,38.086,36.621,29.785,49.316,0
1574374570.724,-0.977,37.109,8.789,-3.418,21.973,0
1574374570.728,5.859,43.945,15.137,4.395,31.738,0
1574374570.731,41.504,51.270,41.504,49.316,49.316,0
1574374570.735,41.016,30.273,34.668,59.570,74.707,0
1574374570.739,28.809,47.852,36.621,45.410,92.285,0
1574374570.743,27.832,38.086,19.043,37.109,90.820,0
1574374570.747,9.766,14.160,-11.230,10.254,59.570,0
1574374570.751,29.785,65.430,19.043,31.250,95.703,0
1574374570.755,31.250,74.219,41.504,50.293,125.000,0
1574374570.759,17.578,33.203,1.953,23.926,81.055,0
1574374570.763,19.531,30.762,14.648,20.996,99.609,0
1574374570.767,40.527,60.059,74.219,52.246,136.719,0
1574374570.771,42.480,80.078,63.965,53.711,115.234,0
1574374570.774,21.973,50.781,24.414,21.973,102.051,0
1574374570.778,31.250,51.270,18.555,38.574,134.277,0
1574374570.782,34.668,21.973,14.160,36.621,132.324,0
1574374570.786,4.883,12.207,6.836,0.977,88.867,0
1574374570.790,-19.043,55.176,6.836,-8.301,66.406,0
1574374570.794,6.836,65.430,32.227,18.555,107.910,0
1574374570.798,34.668,48.828,38.086,33.203,113.770,0
1574374570.802,24.414,9.766,-7.324,21.484,103.027,0
1574374570.806,18.555,39.062,-15.137,17.578,104.492,0
1574374570.810,1.953,70.312,27.832,8.789,59.082,0
1574374570.813,-4.883,60.547,51.758,10.742,65.430,0
1574374570.817,18.555,-14.160,41.504,30.273,66.895,0
1574374570.821,51.270,-16.602,36.133,39.551,80.078,0
1574374570.825,52.246,87.891,38.574,35.156,74.707,0
1574374570.829,46.387,75.195,42.480,30.273,19.531,0
1574374570.833,54.688,58.594,27.832,43.457,28.809,0
1574374570.837,34.180,65.430,0.977,44.434,38.086,0
1574374570.841,11.719,55.664,18.555,25.391,5.859,0
1574374570.845,12.695,45.898,21.973,20.508,-33.691,0
1574374570.849,27.344,30.273,26.855,50.293,-12.695,0
1574374570.853,34.180,22.949,30.273,56.641,9.766,0
1574374570.856,32.715,6.836,17.578,40.039,-15.625,0
1574374570.860,56.641,42.480,38.086,58.105,-10.254,0
1574374570.864,62.012,103.516,51.270,62.500,-11.719,0
1574374570.868,27.344,88.379,38.574,42.480,-40.527,0
1574374570.872,25.391,65.918,28.809,38.086,-39.062,0
1574374570.876,40.039,32.227,-4.395,36.133,-26.367,0
1574374570.880,48.828,0.488,-1.953,34.180,-25.879,0
1574374570.884,46.875,-11.230,57.617,38.086,-25.879,0
1574374570.888,44.922,9.766,81.543,46.387,-13.184,0
1574374570.892,22.461,92.285,39.062,29.785,-37.109,0
1574374570.896,9.766,88.379,15.137,24.414,-37.598,0
1574374570.899,19.043,46.387,13.672,25.879,-5.859,0
1574374570.903,51.270,64.453,27.832,52.246,0.000,0
1574374570.907,57.129,61.523,35.645,62.500,2.441,0
1574374570.911,25.391,12.207,11.719,36.621,-6.836,0
1574374570.915,35.645,1.953,20.996,42.969,0.488,0
1574374570.919,71.289,66.406,70.312,74.219,21.973,0
1574374570.923,50.293,90.820,56.152,59.082,4.883,0
1574374570.927,10.742,34.180,22.949,22.461,-1.465,0
1574374570.931,36.133,30.273,29.297,40.039,-8.301,0
1574374570.935,69.824,55.664,28.320,65.918,14.648,0
1574374570.938,71.289,17.090,28.320,66.406,33.203,0
1574374570.942,36.133,17.578,18.066,56.641,16.113,0
1574374570.946,23.926,75.195,26.367,47.852,19.043,0
1574374570.950,27.344,66.895,30.273,45.898,9.277,0
1574374570.954,23.438,50.781,7.324,37.598,6.836,0
1574374570.958,38.574,35.645,41.016,36.133,28.809,0
1574374570.962,29.297,16.602,52.734,48.340,24.414,0
1574374570.966,19.043,61.523,39.062,49.805,30.273,0
1574374570.970,56.152,49.316,32.227,68.848,56.152,0
1574374570.974,100.098,20.508,28.809,103.516,78.613,0
1574374570.978,41.016,60.059,20.996,53.223,23.438,0
1574374570.981,-31.250,59.082,6.348,-13.672,-30.762,0
1574374570.985,-9.766,41.016,9.766,-0.488,-2.441,0
1574374570.989,37.109,38.086,26.367,38.086,24.902,0
1574374570.993,43.457,31.738,50.293,53.223,37.109,0
1574374570.997,39.062,27.344,26.367,50.781,26.367,0
1574374571.001,23.438,29.297,5.859,31.738,17.578,0
1574374571.005,38.086,34.668,41.016,34.668,38.574,0
1574374571.009,39.551,22.461,27.832,24.902,44.434,0
1574374571.013,32.715,55.664,7.324,58.105,42.480,0
1574374571.017,43.945,49.805,45.898,69.336,46.875,0
1574374571.021,35.645,-17.090,46.387,29.785,32.227,0
1574374571.024,45.898,23.438,54.199,56.152,43.945,0
1574374571.028,34.180,93.262,36.133,60.547,39.551,0
1574374571.032,18.555,90.820,18.555,42.480,26.367,0
1574374571.036,13.184,52.734,25.879,16.602,9.766,0
1574374571.040,11.719,29.297,17.090,17.578,18.066,0
1574374571.044,13.672,4.883,22.461,34.668,29.297,0
1574374571.048,52.246,-3.418,39.062,52.246,43.945,0
1574374571.052,61.035,11.719,43.945,49.316,49.805,0
1574374571.056,21.484,89.844,18.066,29.297,22.949,0
1574374571.060,0.000,110.840,19.043,24.902,12.695,0
1574374571.063,22.949,58.594,48.340,40.527,49.316,0
1574374571.067,52.246,37.109,69.824,58.105,54.688,0
1574374571.071,54.688,43.457,54.688,62.012,30.762,0
1574374571.075,35.156,56.641,32.227,46.875,32.227,0
1574374571.079,30.762,-15.625,24.902,50.293,22.949,0
1574374571.083,60.547,-24.414,41.992,58.594,45.410,0
1574374571.087,50.781,49.316,40.527,43.457,27.344,0
1574374571.091,0.488,92.773,-2.441,14.648,-20.020,0
1574374571.095,-0.977,90.820,1.953,4.395,-9.277,0
1574374571.099,11.719,15.137,20.508,21.484,17.090,0
1574374571.103,32.715,40.039,32.227,34.180,56.152,0
1574374571.106,37.109,75.195,35.156,33.691,44.434,0
1574374571.110,30.273,4.395,25.391,42.969,13.184,0
1574374571.114,47.852,-28.320,19.043,52.246,38.086,0
1574374571.118,83.496,35.645,56.152,82.520,81.543,0
1574374571.122,52.734,97.656,50.293,55.664,60.547,0
1574374571.126,10.742,87.891,36.133,17.090,17.090,0
1574374571.130,41.992,94.238,50.293,54.199,41.016,0
1574374571.134,3.906,49.316,6.836,23.926,23.926,0
1574374571.138,-11.230,6.348,-13.184,-3.906,-1.465,0
1574374571.142,17.090,22.461,1.465,21.484,6.348,0
1574374571.146,32.227,-12.207,37.109,48.340,22.461,0
1574374571.149,62.988,9.766,87.402,74.219,54.688,0
1574374571.153,31.738,80.078,45.410,42.480,51.758,0
1574374571.157,11.719,105.469,-0.977,19.043,12.695,0
1574374571.161,42.969,73.242,13.184,38.574,35.156,0
1574374571.165,40.039,13.184,15.137,40.039,50.293,0
1574374571.169,38.086,32.715,30.762,42.969,58.105,0
1574374571.173,10.254,41.016,41.016,16.602,12.695,0
1574374571.177,5.371,-12.207,36.621,2.930,5.371,0
1574374571.181,18.555,15.137,8.789,15.625,43.457,0
1574374571.185,16.113,62.012,-0.488,15.625,42.480,0
1574374571.188,22.461,34.668,35.156,31.250,42.480,0
1574374571.192,24.902,17.090,45.410,42.969,54.688,0
1574374571.196,33.691,51.270,1.953,34.180,60.059,0
1574374571.200,22.461,78.125,-4.395,24.902,57.617,0
1574374571.204,23.438,84.961,51.758,33.691,54.688,0
1574374571.208,34.668,60.059,62.500,56.152,56.641,0
1574374571.212,22.461,23.438,22.461,29.297,27.832,0
1574374571.216,20.996,12.695,36.133,14.160,15.625,0
1574374571.220,19.531,-12.695,56.152,35.156,36.133,0
1574374571.224,12.207,36.133,20.508,20.508,49.805,0
1574374571.228,20.996,91.309,11.719,21.484,68.848,0
1574374571.231,12.695,67.383,15.137,29.297,28.320,0
1574374571.235,11.230,51.758,9.766,21.973,6.836,0
1574374571.239,47.852,76.660,30.273,52.734,44.434,0
1574374571.243,34.180,87.402,58.105,58.105,55.176,0
1574374571.247,4.883,1.953,49.316,32.715,49.805,0
1574374571.251,52.734,-11.230,55.176,60.547,68.359,0
1574374571.255,64.453,80.078,45.898,71.289,62.500,0
1574374571.259,47.363,102.051,14.648,60.059,52.734,0
1574374571.263,15.625,80.566,12.695,21.973,1.465,0
1574374571.267,10.254,58.594,48.340,0.000,-28.320,0
1574374571.271,39.062,50.781,38.574,34.180,13.672,0
1574374571.274,21.973,40.039,2.441,25.879,-2.441,0
1574374571.278,17.578,42.480,32.715,22.949,-18.555,0
1574374571.282,50.781,20.020,64.941,65.918,36.621,0
1574374571.286,48.340,39.062,47.852,64.941,22.949,0
1574374571.290,45.410,64.453,-14.160,43.457,-18.066,0
1574374571.294,49.316,89.355,-4.395,61.035,22.461,0
1574374571.298,19.043,101.562,61.523,41.016,17.090,0
1574374571.302,12.695,40.039,50.293,15.137,-1.465,0
1574374571.306,44.434,34.180,62.988,54.688,35.156,0
1574374571.310,55.664,28.320,73.730,66.406,7.812,0
1574374571.313,20.996,32.227,44.922,25.879,-28.809,0
1574374571.317,0.488,62.012,13.184,21.484,-10.742,0
1574374571.321,33.203,63.965,22.461,40.527,-2.441,0
1574374571.325,43.457,23.926,46.875,49.805,29.785,0
1574374571.329,27.344,55.176,33.691,40.527,49.805,0
1574374571.333,30.762,74.707,-1.465,36.133,22.461,0
1574374571.337,25.391,33.691,-1.953,34.668,-19.043,0
1574374571.341,30.273,-0.977,40.039,47.852,3.418,0
1574374571.345,46.875,-10.742,22.461,64.453,47.852,0
1574374571.349,39.551,65.918,27.344,48.340,43.945,0
1574374571.353,23.438,93.750,45.410,36.621,28.320,0
1574374571.356,32.227,69.824,51.758,42.969,26.367,0
1574374571.360,16.113,51.758,33.203,20.508,8.301,0
1574374571.364,24.414,6.836,13.184,27.344,20.508,0
1574374571.368,62.500,2.930,47.363,61.523,53.711,0
1574374571.372,33.203,35.156,32.227,55.664,41.016,0
1574374571.376,22.461,28.320,0.000,54.688,41.992,0
1574374571.380,38.086,43.945,23.438,36.621,50.293,0
1574374571.384,-4.883,83.496,26.367,-6.348,68.359,0
1574374571.388,27.832,69.336,55.664,23.438,218.262,0
1574374571.392,58.105,19.531,42.480,34.180,445.801,0
1574374571.396,32.227,0.977,2.441,19.043,634.277,0
1574374571.399,47.852,42.969,9.277,30.762,775.879,0
1574374571.403,44.922,29.297,17.090,20.020,815.918,0
1574374571.407,48.828,-16.602,37.109,39.551,676.758,0
1574374571.411,29.297,42.480,23.438,41.504,383.301,0
1574374571.415,19.531,97.168,43.457,39.551,95.215,0
1574374571.419,53.711,104.004,60.547,57.129,-86.914,0
1574374571.423,31.250,54.199,13.184,40.527,-219.727,0
1574374571.427,20.996,6.348,9.277,48.828,-268.555,0
1574374571.431,29.785,22.461,35.156,54.688,-239.746,0
1574374571.435,36.621,46.875,44.922,54.688,-176.758,0
1574374571.438,21.484,37.109,47.363,47.363,-127.930,0
1574374571.442,9.277,-20.996,34.668,32.715,-121.582,0
1574374571.446,28.809,8.789,23.438,20.996,-116.211,0
1574374571.450,33.691,86.426,17.090,34.180,-110.840,0
1574374571.454,17.090,58.105,-2.441,26.855,-101.074,0
1574374571.458,8.789,32.715,9.766,14.648,-107.422,0
1574374571.462,47.852,52.734,43.457,57.129,-97.168,0
1574374571.466,62.988,19.531,66.895,59.082,-50.781,0
1574374571.470,38.086,13.184,37.109,37.109,-41.504,0
1574374571.474,22.461,54.199,11.230,37.598,-62.988,0
1574374571.478,21.973,45.410,26.855,27.832,-74.219,0
1574374571.481,15.137,50.781,40.527,27.344,-22.949,0
1574374571.485,-8.789,60.059,14.648,11.230,-27.344,0
1574374571.489,36.621,40.527,8.301,31.250,-43.945,0
1574374571.493,60.547,53.711,33.691,47.363,-25.391,0
1574374571.497,26.855,37.598,31.250,35.645,-37.598,0
1574374571.501,38.574,20.020,28.320,40.039,-20.508,0
1574374571.505,44.434,27.832,30.273,41.992,2.441,0
1574374571.509,44.922,58.105,47.363,54.688,10.742,0
1574374571.513,22.949,56.641,52.246,53.711,0.977,0
1574374571.517,25.391,46.387,31.250,38.086,-6.348,0
1574374571.521,50.781,43.457,32.227,45.410,21.973,0
1574374571.524,35.645,28.809,23.438,41.992,28.320,0
1574374571.528,26.367,59.082,10.742,25.391,-2.930,0
1574374571.532,39.551,69.336,35.156,31.250,13.184,0
1574374571.536,34.668,4.395,58.105,41.016,-2.441,0
1574374571.540,20.996,13.184,55.664,44.434,-25.879,0
1574374571.544,23.926,63.477,34.180,29.297,-16.113,0
1574374571.548,13.672,50.781,14.648,22.461,0.488,0
1574374571.552,10.254,81.543,37.109,37.109,-10.742,0
1574374571.556,30.273,71.289,47.363,51.270,18.555,0
1574374571.560,45.410,37.598,39.551,48.828,53.223,0
1574374571.563,29.785,46.875,35.156,23.926,24.902,0
1574374571.567,18.555,45.898,32.227,30.762,23.438,0
1574374571.571,31.250,43.945,33.203,56.641,28.320,0
1574374571.575,41.504,36.133,21.484,55.176,24.414,0
1574374571.579,63.965,32.715,46.387,69.336,61.035,0
1574374571.583,55.176,50.293,48.340,71.289,62.988,0
1574374571.587,41.016,26.367,24.902,46.875,49.316,0
1574374571.591,40.039,32.715,42.969,48.340,26.855,0
1574374571.595,7.324,79.102,24.902,13.672,7.812,0
1574374571.599,4.883,75.684,17.578,-2.441,29.297,0
1574374571.603,20.020,64.453,32.715,16.113,23.926,0
1574374571.606,30.273,64.453,45.898,39.062,25.879,0
1574374571.610,27.344,47.852,41.992,30.273,44.434,0
1574374571.614,16.602,28.809,27.832,21.973,49.316,0
1574374571.618,26.855,38.574,36.133,46.875,28.320,0
1574374571.622,18.555,39.551,38.574,41.992,38.086,0
1574374571.626,25.879,48.828,47.363,41.016,55.176,0
1574374571.630,43.945,54.688,51.270,42.969,61.035,0
1574374571.634,15.625,40.527,24.902,17.090,62.988,0
1574374571.638,1.953,39.551,14.160,-2.930,19.043,0
1574374571.642,4.883,31.250,23.438,9.766,4.883,0
1574374571.646,12.695,28.320,41.504,18.066,49.316,0
1574374571.649,-19.531,41.016,37.598,4.883,55.664,0
1574374571.653,-28.320,48.340,26.855,-1.465,35.156,0
1574374571.657,-5.371,13.184,23.438,-7.812,21.484,0
1574374571.661,4.883,42.969,14.648,6.836,52.734,0
1574374571.665,-19.043,80.078,12.207,-10.742,46.387,0
1574374571.669,-21.484,62.500,20.020,-27.832,48.828,0
1574374571.673,-35.645,25.391,22.949,-23.438,46.875,0
1574374571.677,-70.801,39.062,32.715,-40.527,16.113,0
1574374571.681,-57.129,86.914,40.039,-39.062,41.992,0
1574374571.685,-75.195,58.105,20.508,-62.988,35.645,0
1574374571.688,-75.684,45.898,28.320,-61.523,58.594,0
1574374571.692,-62.012,50.293,27.344,-41.504,19.043,0
1574374571.696,-63.477,43.945,20.020,-49.316,-25.879,0
1574374571.700,-78.125,60.547,22.461,-62.012,33.203,0
1574374571.704,-97.656,40.039,21.973,-78.613,19.531,0
1574374571.708,-85.938,38.574,21.973,-70.801,-20.508,0
1574374571.712,-66.895,71.289,22.461,-56.152,-35.156,0
1574374571.716,-80.078,57.617,28.809,-62.500,-51.270,0
1574374571.720,-81.055,40.527,29.297,-79.590,-36.133,0
1574374571.724,-70.312,36.133,30.273,-76.660,-28.809,0
1574374571.728,-78.613,29.785,29.785,-59.570,-46.875,0
1574374571.731,-83.008,33.691,32.227,-64.453,-67.383,0
1574374571.735,-78.613,37.598,17.578,-61.035,-102.051,0
1574374571.739,-85.938,32.715,8.789,-46.875,-105.957,0
1574374571.743,-76.172,26.855,25.391,-51.758,-92.285,0
1574374571.747,-35.156,20.996,49.316,-36.621,-73.730,0
1574374571.751,-30.762,35.156,54.688,-44.434,-83.008,0
1574374571.755,-45.410,69.336,50.781,-37.109,-92.773,0
1574374571.759,-46.387,54.199,41.992,-8.789,-95.215,0
1574374571.763,-17.578,58.594,43.457,17.578,-73.242,0
1574374571.767,-0.488,55.664,49.805,23.926,-44.434,0
1574374571.771,24.414,32.227,49.316,31.738,-20.508,0
1574374571.774,41.016,47.363,67.383,73.730,-2.930,0
1574374571.778,52.246,45.410,61.035,81.055,-5.371,0
1574374571.782,67.871,43.945,46.875,89.355,3.906,0
1574374571.786,77.637,44.922,34.180,107.910,25.391,0
1574374571.790,81.543,49.316,32.227,115.234,24.414,0
1574374571.794,87.891,52.246,52.734,124.023,33.203,0
1574374571.798,75.684,36.621,53.711,125.488,40.039,0
1574374571.802,93.750,19.531,44.922,145.996,44.434,0
1574374571.806,131.348,16.113,37.109,160.645,76.660,0
1574374571.810,145.020,41.504,41.504,153.320,99.121,0
1574374571.813,143.555,53.223,48.828,129.883,103.516,0
1574374571.817,131.348,53.711,37.109,144.043,82.031,0
1574374571.821,131.348,24.414,45.898,172.852,83.984,0
1574374571.825,133.301,-30.762,57.129,177.246,104.492,0
1574374571.829,122.559,24.414,45.410,170.410,128.906,0
1574374571.833,110.352,88.867,17.578,142.090,102.051,0
1574374571.837,123.535,75.684,13.184,119.141,48.828,0
1574374571.841,121.582,64.941,42.969,156.250,67.383,0
1574374571.845,113.770,51.270,60.547,165.527,89.355,0
1574374571.849,125.000,39.062,58.594,142.578,95.215,0
1574374571.853,126.953,20.996,45.410,134.277,100.098,0
1574374571.856,116.699,13.672,34.180,142.578,99.121,0
1574374571.860,112.793,49.316,35.156,152.344,105.957,0
1574374571.864,112.305,46.875,40.527,149.414,105.957,0
1574374571.868,115.723,29.785,58.594,149.902,110.352,0
1574374571.872,121.582,41.992,65.918,145.020,107.422,0
1574374571.876,98.145,62.988,45.410,111.328,79.590,0
1574374571.880,90.332,57.617,30.762,108.887,90.332,0
1574374571.884,98.145,36.621,38.574,110.352,98.633,0
1574374571.888,115.723,48.828,54.199,116.699,144.531,0
1574374571.892,124.023,36.133,46.875,135.254,140.625,0
1574374571.896,83.496,37.109,31.738,113.770,56.641,0
1574374571.899,72.754,63.965,33.691,111.816,75.195,0
1574374571.903,94.238,67.871,37.109,121.582,108.398,0
1574374571.907,81.543,53.223,23.438,110.352,74.707,0
1574374571.911,84.473,59.570,16.602,104.004,59.082,0
1574374571.915,83.496,59.082,36.621,94.727,95.215,0
1574374571.919,74.707,33.203,41.504,87.402,109.863,0
1574374571.923,96.680,17.578,20.996,89.844,103.027,0
1574374571.927,104.004,67.383,41.016,101.074,123.047,0
1574374571.931,111.328,90.820,73.242,122.070,103.516,0
1574374571.935,102.051,32.715,55.664,119.629,98.633,0
1574374571.938,78.613,39.062,31.738,90.332,133.789,0
1574374571.942,45.410,71.289,32.715,74.219,72.266,0
1574374571.946,53.223,51.758,34.668,90.820,41.504,0
1574374571.950,89.844,63.965,39.551,97.168,76.660,0
1574374571.954,69.336,67.383,30.273,82.031,78.613,0
1574374571.958,66.406,34.180,7.324,93.750,88.379,0
1574374571.962,96.680,36.133,18.066,98.145,110.840,0
1574374571.966,63.477,57.617,42.480,65.918,60.547,0
1574374571.970,45.898,39.062,42.969,58.594,29.297,0
1574374571.974,65.918,42.480,45.898,42.969,83.984,0
1574374571.978,67.383,68.359,47.363,64.453,78.613,0
1574374571.981,77.637,53.711,26.855,90.332,57.617,0
1574374571.985,96.191,28.809,32.227,105.469,90.332,0
1574374571.989,104.980,12.695,55.664,121.094,107.422,0
1574374571.993,82.031,44.434,31.250,86.914,90.820,0
1574374571.997,45.410,95.703,33.203,63.477,62.988,0
1574374572.001,34.668,102.539,47.363,53.223,47.363,0
1574374572.005,27.832,77.148,32.715,44.922,24.902,0
1574374572.009,46.875,47.852,36.621,46.387,31.250,0
1574374572.013,81.055,23.438,30.762,62.012,64.941,0
1574374572.017,70.312,36.133,6.836,70.801,83.008,0
1574374572.021,65.430,49.316,31.738,76.172,89.355,0
1574374572.024,72.754,69.336,63.965,61.035,82.031,0
1574374572.028,66.895,75.195,51.270,45.898,60.547,0
1574374572.032,48.340,60.059,32.227,41.504,39.062,0
1574374572.036,48.340,71.289,24.902,42.969,52.734,0
1574374572.040,70.312,78.613,29.785,66.406,93.262,0
1574374572.044,88.379,40.039,48.828,92.773,84.961,0
1574374572.048,87.402,36.621,45.410,84.473,74.219,0
1574374572.052,51.758,57.129,-3.906,44.922,43.457,0
1574374572.056,42.969,60.059,1.465,41.016,38.574,0
1574374572.060,53.223,78.125,35.156,46.875,67.871,0
1574374572.063,60.547,62.988,27.832,52.734,31.738,0
1574374572.067,80.078,46.875,39.551,76.660,51.270,0
1574374572.071,73.242,40.039,53.223,69.336,102.539,0
1574374572.075,45.898,27.344,21.973,38.574,70.312,0
1574374572.079,43.457,67.383,23.926,41.992,50.781,0
1574374572.083,54.688,99.121,48.340,36.133,68.848,0
1574374572.087,53.711,62.500,48.340,38.574,112.305,0
1574374572.091,39.062,16.602,26.367,53.223,82.520,0
1574374572.095,46.875,53.223,25.391,65.430,55.664,0
1574374572.099,56.152,92.285,41.016,73.242,123.047,0
1574374572.103,70.801,60.547,47.363,75.684,105.469,0
1574374572.106,53.711,42.969,29.785,63.477,52.734,0
1574374572.110,36.621,59.570,20.996,51.270,55.176,0
1574374572.114,48.828,55.176,37.109,54.688,41.016,0
1574374572.118,41.504,27.344,40.527,45.898,44.434,0
1574374572.122,37.109,43.457,26.367,41.504,62.988,0
1574374572.126,35.645,70.312,34.180,46.875,56.641,0
1574374572.130,32.715,41.992,40.527,52.734,57.617,0
1574374572.134,36.621,35.645,22.461,46.875,83.984,0
1574374572.138,49.316,43.945,30.762,60.059,89.844,0
1574374572.142,53.223,62.012,37.598,68.359,61.035,0
1574374572.146,51.270,77.148,36.621,63.965,58.594,0
1574374572.149,41.016,81.055,34.668,41.504,54.199,0
1574374572.153,37.109,65.430,31.738,30.273,53.711,0
1574374572.157,48.828,43.945,35.156,45.410,68.848,0
1574374572.161,58.105,67.871,35.156,60.059,47.363,0
1574374572.165,53.223,73.242,19.043,65.430,27.344,0
1574374572.169,37.598,49.805,19.531,59.082,4.883,0
1574374572.173,32.715,30.273,43.457,57.617,10.254,0
1574374572.177,39.551,15.625,44.434,57.617,25.391,0
1574374572.181,42.969,55.664,39.062,57.129,17.578,0
1574374572.185,35.156,62.012,34.180,49.316,-6.348,0
1574374572.188,34.180,44.922,21.973,40.527,10.254,0
1574374572.192,49.805,58.105,9.277,49.805,25.879,0
1574374572.196,45.898,67.383,20.996,58.105,13.184,0
1574374572.200,31.250,51.758,26.367,39.062,-1.465,0
1574374572.204,35.645,42.969,19.531,39.062,0.000,0
1574374572.208,44.922,54.199,22.461,49.316,25.879,0
1574374572.212,32.227,40.527,25.879,46.387,8.789,0
1574374572.216,29.785,43.945,32.227,55.664,18.066,0
1574374572.220,25.879,61.035,29.785,51.270,27.344,0
1574374572.224,25.879,46.875,18.555,45.898,9.277,0
1574374572.228,40.527,26.367,10.742,52.734,22.461,0
1574374572.231,56.641,57.129,28.809,61.035,39.551,0
1574374572.235,43.945,59.082,32.715,48.828,60.059,0
1574374572.239,24.414,35.156,12.695,32.715,51.758,0
1574374572.243,19.043,41.016,22.461,35.156,23.438,0
1574374572.247,23.438,64.453,36.133,39.062,-11.719,0
1574374572.251,47.852,67.871,34.668,61.035,3.418,0
1574374572.255,68.848,73.730,51.270,82.031,62.988,0
1574374572.259,55.176,41.504,43.457,65.430,88.867,0
1574374572.263,5.371,20.020,19.043,27.344,47.363,0
1574374572.267,0.488,46.875,26.855,14.160,-1.465,0
1574374572.271,33.691,51.270,27.832,33.691,16.602,0
1574374572.274,32.227,44.434,27.344,49.316,38.574,0
1574374572.278,36.621,46.387,38.086,49.316,38.086,0
1574374572.282,47.852,27.344,42.480,60.547,39.551,0
1574374572.286,49.805,0.488,36.621,46.387,108.887,0
1574374572.290,48.828,41.504,13.184,40.039,217.285,0
1574374572.294,56.152,81.543,13.184,60.547,379.395,0
1574374572.298,60.059,81.543,42.969,57.129,608.887,0
1574374572.302,42.969,67.871,51.758,28.320,758.789,0
1574374572.306,47.852,66.406,44.434,27.344,833.008,0
1574374572.310,49.316,67.871,33.203,40.039,714.355,0
1574374572.313,49.805,59.082,31.250,47.363,452.637,0
1574374572.317,46.387,53.223,31.738,70.801,181.641,0
1574374572.321,27.832,33.203,42.969,70.312,-72.266,0
1574374572.325,38.086,16.602,51.270,61.035,-190.430,0
1574374572.329,50.781,13.184,33.691,68.848,-225.098,0
1574374572.333,53.223,60.547,36.621,74.707,-216.797,0
1574374572.337,29.297,91.309,31.250,47.852,-189.453,0
1574374572.341,19.043,55.176,26.367,37.109,-155.273,0
1574374572.345,33.691,48.340,33.203,36.621,-134.766,0
1574374572.349,27.832,65.918,36.133,29.785,-105.469,0
1574374572.353,21.973,63.965,31.738,34.668,-93.750,0
1574374572.356,40.527,29.785,21.484,41.992,-103.516,0
1574374572.360,56.641,28.809,32.227,61.523,-84.961,0
1574374572.364,47.852,60.059,35.156,67.871,-62.012,0
1574374572.368,44.922,62.012,34.180,64.941,-39.551,0
1574374572.372,41.992,18.555,16.602,59.570,-65.918,0
1574374572.376,47.852,19.531,10.254,50.781,-56.152,0
1574374572.380,55.176,62.012,44.434,55.664,-24.414,0
1574374572.384,47.852,68.359,51.758,61.035,-35.645,0
1574374572.388,40.527,70.312,34.180,57.129,-20.508,0
1574374572.392,31.738,63.477,35.645,50.781,-21.484,0
1574374572.396,35.645,62.012,45.898,62.988,-22.949,0
1574374572.399,38.574,54.688,62.988,62.500,3.418,0
1574374572.403,21.484,40.527,51.270,50.781,-28.809,0
1574374572.407,22.949,35.645,33.691,57.617,-45.410,0
1574374572.411,37.109,29.297,48.828,62.500,-16.113,0
1574374572.415,39.551,30.273,61.523,52.246,-2.930,0
1574374572.419,30.762,30.273,61.523,58.105,33.203,0
1574374572.423,25.879,23.438,80.566,69.824,23.926,0
1574374572.427,41.016,30.273,89.355,72.266,12.695,0
1574374572.431,55.664,16.113,78.613,91.309,45.410,0
1574374572.435,69.336,10.742,84.473,91.309,73.242,0
1574374572.438,74.707,30.273,80.566,91.797,77.148,0
1574374572.442,72.266,27.832,71.289,111.816,52.246,0
1574374572.446,64.941,32.715,83.496,114.746,52.246,0
1574374572.450,73.242,17.090,89.844,117.676,57.617,0
1574374572.454,88.379,33.691,83.496,127.441,81.055,0
1574374572.458,62.500,80.566,78.613,122.559,79.590,0
1574374572.462,60.059,47.363,73.730,104.492,86.914,0
1574374572.466,82.031,17.090,51.758,109.863,79.590,0
1574374572.470,77.637,40.039,40.039,122.559,73.242,0
1574374572.474,63.477,57.129,66.406,101.074,70.312,0
1574374572.478,44.922,55.664,86.914,88.379,69.336,0
1574374572.481,45.898,34.668,80.078,85.938,79.102,0
1574374572.485,58.105,38.574,71.289,82.520,74.707,0
1574374572.489,62.012,43.457,67.871,85.449,84.473,0
1574374572.493,56.641,41.016,65.430,92.285,101.562,0
1574374572.497,50.781,50.293,57.129,88.867,76.660,0
1574374572.501,48.828,22.461,55.664,77.637,66.895,0
1574374572.505,50.293,8.789,65.430,81.055,84.961,0
1574374572.509,66.895,36.621,68.848,87.891,78.125,0
1574374572.513,62.988,41.992,61.035,76.660,86.914,0
1574374572.517,56.152,39.062,40.527,78.613,76.172,0
1574374572.521,50.293,47.363,32.715,69.336,64.453,0
1574374572.524,39.062,52.246,35.156,49.805,99.609,0
1574374572.528,36.133,45.410,45.898,55.664,93.750,0
1574374572.532,42.969,36.133,43.945,74.219,64.453,0
1574374572.536,60.059,41.504,46.387,66.406,101.074,0
1574374572.540,62.012,47.363,40.527,58.594,107.422,0
1574374572.544,53.223,41.504,31.738,76.172,99.609,0
1574374572.548,47.852,48.828,46.387,80.078,95.215,0
1574374572.552,41.992,55.664,36.133,74.219,82.031,0
1574374572.556,33.203,44.922,30.762,57.617,95.215,0
1574374572.560,27.832,32.227,43.457,44.922,83.008,0
1574374572.563,41.504,34.668,38.086,56.641,107.910,0
1574374572.567,58.594,18.066,28.320,65.430,162.598,0
1574374572.571,54.688,14.648,28.809,51.758,141.113,0
1574374572.575,45.898,71.289,26.367,59.082,118.164,0
1574374572.579,43.457,83.008,35.156,69.824,133.789,0
1574374572.583,57.617,46.875,43.945,64.941,148.926,0
1574374572.587,54.199,43.457,23.926,57.617,142.578,0
1574374572.591,38.086,57.617,13.184,57.617,151.367,0
1574374572.595,31.738,59.570,37.598,60.059,140.625,0
1574374572.599,25.879,65.430,43.457,56.641,155.762,0
1574374572.603,46.875,54.199,34.180,65.430,168.457,0
1574374572.606,55.176,32.715,38.574,52.246,132.324,0
1574374572.610,49.316,54.199,38.086,54.688,134.277,0
1574374572.614,49.316,72.266,33.691,70.312,125.000,0
1574374572.618,36.621,50.781,23.438,53.711,103.027,0
1574374572.622,30.273,28.320,22.461,38.574,87.891,0
1574374572.626,35.645,19.531,29.297,39.062,89.844,0
1574374572.630,33.691,20.508,20.996,43.457,74.707,0
1574374572.634,36.133,44.434,21.484,43.945,57.129,0
1574374572.638,42.480,42.969,15.625,43.457,58.105,0
1574374572.642,39.551,17.578,14.648,51.758,45.898,0
1574374572.646,39.551,55.176,23.926,59.082,41.992,0
1574374572.649,38.086,56.152,44.434,60.547,31.738,0
1574374572.653,37.598,43.457,48.828,60.547,29.785,0
1574374572.657,37.109,61.523,36.621,55.176,-5.371,0
1574374572.661,32.715,60.059,42.480,52.734,-26.855,0
1574374572.665,31.250,59.570,50.781,43.457,-15.137,0
1574374572.669,34.180,43.457,48.340,46.875,-13.672,0
1574374572.673,39.551,47.852,34.668,60.059,-12.207,0
1574374572.677,41.504,70.312,29.297,58.105,-15.137,0
1574374572.681,48.340,48.340,28.320,64.941,-15.137,0
1574374572.685,56.641,21.973,37.598,71.777,-10.742,0
1574374572.688,49.316,54.199,41.016,67.383,-0.488,0
1574374572.692,44.434,68.359,22.461,54.688,-12.695,0
1574374572.696,42.969,42.480,13.672,43.457,-19.043,0
1574374572.700,50.293,42.480,31.738,62.012,-6.836,0
1574374572.704,44.922,45.410,42.480,50.781,1.953,0
1574374572.708,37.109,40.039,41.504,46.387,-14.160,0
1574374572.712,41.504,47.852,41.016,45.410,-5.371,0
1574374572.716,28.809,51.758,25.879,39.062,8.301,0
1574374572.720,31.250,44.922,16.113,51.758,-8.789,0
1574374572.724,57.617,41.504,39.062,55.176,3.906,0
1574374572.728,40.039,63.965,48.340,64.453,14.160,0
1574374572.731,31.250,49.805,19.043,51.758,-2.930,0
1574374572.735,46.875,30.762,27.832,51.270,9.277,0
1574374572.739,48.828,40.527,33.203,64.941,14.160,0
1574374572.743,53.711,41.992,26.367,62.988,9.277,0
1574374572.747,38.086,36.133,39.551,57.129,11.719,0
1574374572.751,36.133,28.809,42.480,53.711,30.273,0
1574374572.755,53.223,31.250,33.203,47.852,51.270,0
1574374572.759,55.664,28.320,31.250,62.988,41.992,0
1574374572.763,42.969,37.109,15.137,62.012,39.551,0
1574374572.767,31.738,59.570,24.414,39.551,28.320,0
1574374572.771,44.434,74.707,41.992,59.570,29.785,0
1574374572.774,37.109,55.176,24.902,58.594,25.879,0
1574374572.778,29.297,20.508,29.785,37.109,21.973,0
1574374572.782,26.367,6.836,37.109,45.898,32.715,0
1574374572.786,37.109,16.602,28.320,51.758,44.434,0
1574374572.790,62.012,42.480,35.645,62.988,59.082,0
1574374572.794,47.852,45.898,33.691,58.594,62.500,0
1574374572.798,-4.395,42.480,16.602,24.902,24.902,0
1574374572.802,8.789,30.273,16.113,27.344,24.902,0
1574374572.806,22.461,13.184,23.438,14.648,51.270,0
1574374572.810,18.555,16.602,16.602,20.996,35.156,0
1574374572.813,37.109,45.410,10.742,61.035,35.156,0
1574374572.817,24.902,66.406,35.156,54.199,43.945,0
1574374572.821,13.672,37.109,61.035,30.273,62.500,0
1574374572.825,30.273,21.484,36.621,40.039,56.152,0
1574374572.829,30.273,36.621,17.090,46.387,27.832,0
1574374572.833,19.531,34.668,34.180,17.578,31.250,0
1574374572.837,13.184,25.879,31.738,11.719,14.648,0
1574374572.841,2.441,39.551,20.996,24.902,19.043,0
1574374572.845,-3.418,41.016,18.066,9.766,13.184,0
1574374572.849,-14.648,33.691,12.695,-13.184,-10.254,0
1574374572.853,-25.879,32.715,2.930,-25.879,-39.062,0
1574374572.856,-37.109,22.949,6.836,-37.109,-25.879,0
1574374572.860,-57.129,45.410,5.371,-67.871,-21.484,0
1574374572.864,-80.566,49.316,-5.371,-83.496,-88.379,0
1574374572.868,-87.891,38.574,-3.906,-76.660,-99.121,0
1574374572.872,-77.148,45.410,-1.465,-86.426,-82.031,0
1574374572.876,-104.492,30.273,2.441,-110.840,-105.957,0
1574374572.880,-129.395,36.133,-15.625,-135.254,-131.348,0
1574374572.884,-129.883,50.293,-53.223,-146.484,-136.230,0
1574374572.888,-112.793,39.551,-43.945,-130.859,-122.559,0
1574374572.892,-109.375,41.992,-5.371,-130.371,-102.051,0
1574374572.896,-158.203,88.379,-25.391,-172.363,-161.133,0
1574374572.899,-177.246,96.680,-33.203,-205.566,-202.148,0
1574374572.903,-147.461,66.895,-10.254,-188.965,-155.273,0
1574374572.907,-134.766,45.898,-8.789,-166.016,-126.465,0
1574374572.911,-133.789,52.246,-27.832,-151.367,-150.879,0
1574374572.915,-116.699,53.223,-49.316,-136.230,-138.184,0
1574374572.919,-96.680,39.551,-49.316,-128.418,-120.117,0
1574374572.923,-74.219,65.918,-13.672,-94.727,-82.520,0
1574374572.927,-71.289,78.613,-20.996,-87.891,-64.941,0
1574374572.931,-62.988,58.594,-41.992,-89.844,-80.566,0
1574374572.935,-57.617,23.926,-41.016,-76.660,-72.266,0
1574374572.938,-55.664,42.480,-52.734,-73.242,-70.801,0
1574374572.942,-35.156,50.293,-39.551,-59.570,-38.086,0
1574374572.946,-16.602,31.250,-27.832,-33.691,-37.598,0
1574374572.950,-11.230,52.246,-23.438,-44.922,-22.949,0
1574374572.954,0.977,72.754,-22.949,-48.340,2.930,0
1574374572.958,28.809,67.871,-20.020,-3.906,11.719,0
1574374572.962,27.344,28.809,-11.230,14.648,3.418,0
1574374572.966,26.367,20.020,-18.066,9.277,25.879,0
1574374572.970,43.945,56.152,-20.508,15.137,69.824,0
1574374572.974,43.457,55.664,-3.906,34.668,43.457,0
1574374572.978,40.527,48.828,-20.020,25.879,24.902,0
1574374572.981,74.219,49.805,-30.762,41.504,77.148,0
1574374572.985,78.125,54.688,3.418,45.410,88.379,0
1574374572.989,26.855,41.504,10.742,7.812,44.922,0
1574374572.993,25.391,40.527,8.789,13.184,34.180,0
1574374572.997,45.410,40.527,-3.906,37.109,63.477,0
1574374573.001,63.965,26.855,-8.789,56.152,110.840,0
1574374573.005,72.754,20.508,8.789,61.523,124.023,0
1574374573.009,62.500,22.949,12.207,61.035,82.031,0
1574374573.013,61.523,53.711,4.883,68.359,70.801,0
1574374573.017,66.406,70.801,20.020,69.336,78.125,0
1574374573.021,80.078,47.363,20.508,69.336,73.730,0
1574374573.024,71.777,29.297,10.254,49.316,83.008,0
1574374573.028,73.242,55.664,13.672,65.918,90.332,0
1574374573.032,89.355,65.430,22.461,83.496,99.121,0
1574374573.036,57.617,43.457,36.621,45.898,89.355,0
1574374573.040,65.430,56.152,50.781,71.777,62.988,0
1574374573.044,80.078,41.992,50.781,90.820,76.172,0
1574374573.048,44.922,23.438,24.902,47.363,80.078,0
1574374573.052,68.359,52.246,-3.906,55.176,64.941,0
1574374573.056,88.379,43.945,-26.855,68.848,69.336,0
1574374573.060,64.453,32.227,14.648,55.664,81.055,0
1574374573.063,55.664,51.758,65.918,55.176,64.941,0
1574374573.067,53.223,53.711,55.664,48.340,27.344,0
1574374573.071,53.223,59.082,42.969,63.477,18.555,0
1574374573.075,57.617,50.781,36.133,69.824,35.645,0
1574374573.079,69.824,23.438,42.969,72.266,64.941,0
1574374573.083,81.543,38.086,43.945,98.145,44.922,0
1574374573.087,84.473,57.617,19.531,91.309,40.527,0
1574374573.091,81.543,64.453,56.152,77.637,65.430,0
1574374573.095,71.289,59.082,58.594,69.824,38.086,0
1574374573.099,53.223,65.430,12.695,65.430,21.973,0
1574374573.103,62.500,82.520,-19.043,78.125,48.828,0
1574374573.106,80.566,62.012,16.602,88.379,70.801,0
1574374573.110,69.824,35.645,62.500,68.848,16.113,0
1574374573.114,50.293,45.410,74.707,53.223,13.672,0
1574374573.118,42.480,28.320,61.035,38.574,33.691,0
1574374573.122,34.180,14.160,23.926,32.715,21.484,0
1574374573.126,54.199,43.945,36.133,71.777,66.895,0
1574374573.130,71.289,62.988,30.273,83.496,72.754,0
1574374573.134,60.059,52.246,31.250,75.195,51.758,0
1574374573.138,43.945,50.293,45.410,65.918,60.547,0
1574374573.142,73.730,34.668,16.602,79.590,49.805,0
1574374573.146,63.965,37.598,14.648,69.824,31.250,0
1574374573.149,34.180,63.965,41.016,49.805,36.621,0
1574374573.153,47.852,26.855,42.969,55.664,38.086,0
1574374573.157,36.621,46.387,49.316,33.203,16.113,0
1574374573.161,14.160,61.035,35.156,13.184,6.348,0
1574374573.165,-7.324,43.457,12.695,-11.719,-12.207,0
1574374573.169,-10.742,65.918,15.625,-26.855,-27.344,0
1574374573.173,14.648,52.246,40.527,27.344,32.715,0
1574374573.177,8.789,23.926,16.113,31.738,35.156,0
1574374573.181,-15.625,39.551,-21.484,-20.020,-11.719,0
1574374573.185,-8.789,60.547,32.715,-12.207,23.438,0
1574374573.188,1.465,71.289,42.969,-8.789,76.660,0
1574374573.192,-11.230,31.250,18.555,-23.926,195.801,0
1574374573.196,-11.719,-6.836,16.113,-12.207,412.109,0
1574374573.200,30.273,31.250,19.531,19.043,657.715,0
1574374573.204,49.316,58.594,24.414,22.949,805.176,0
1574374573.208,26.855,51.758,21.484,0.000,764.648,0
1574374573.212,30.762,38.574,15.137,8.789,578.613,0
1574374573.216,29.297,9.277,-13.184,22.461,307.617,0
1574374573.220,22.461,38.574,15.137,31.250,37.109,0
1574374573.224,42.969,61.523,45.410,43.945,-124.512,0
1574374573.228,39.062,37.109,39.062,35.156,-199.707,0
1574374573.231,13.184,53.223,39.551,40.039,-277.344,0
1574374573.235,23.926,52.246,23.926,52.734,-294.922,0
1574374573.239,30.762,12.207,23.438,52.734,-212.402,0
1574374573.243,38.574,30.273,30.762,64.453,-135.742,0
1574374573.247,60.547,48.340,19.043,60.059,-107.422,0
1574374573.251,42.969,11.719,37.598,43.945,-86.426,0
1574374573.255,27.832,41.016,44.434,35.156,-105.957,0
1574374573.259,33.691,57.617,13.184,27.832,-99.609,0
1574374573.263,59.082,61.035,21.973,61.035,-32.715,0
1574374573.267,61.523,58.594,42.480,82.520,-36.133,0
1574374573.271,43.945,37.109,21.484,66.895,-49.316,0
1574374573.274,46.387,53.711,36.621,55.664,-29.785,0
1574374573.278,43.457,25.391,59.570,52.734,-9.277,0
1574374573.282,44.434,20.996,56.152,67.871,-15.137,0
1574374573.286,48.828,42.480,17.090,53.223,-26.855,0
1574374573.290,54.199,-5.859,-7.324,43.945,-4.883,0
1574374573.294,60.059,37.109,31.738,59.082,31.250,0
1574374573.298,65.430,101.562,47.363,74.219,54.688,0
1574374573.302,34.180,86.426,37.109,48.340,18.066,0
1574374573.306,41.992,74.707,36.133,42.969,0.000,0
1574374573.310,57.129,65.918,33.203,76.660,9.277,0
1574374573.313,58.594,44.434,45.898,85.449,28.320,0
1574374573.317,58.594,16.602,56.641,73.242,29.297,0
1574374573.321,42.969,13.184,42.480,50.293,16.113,0
1574374573.325,42.480,52.734,29.297,49.316,15.625,0
1574374573.329,46.875,54.199,34.668,44.434,48.340,0
1574374573.333,57.129,36.621,48.828,61.523,59.570,0
1574374573.337,56.152,27.832,33.691,77.148,24.902,0
1574374573.341,46.387,27.832,5.371,52.246,8.789,0
1574374573.345,61.523,74.707,11.230,65.918,41.504,0
1574374573.349,60.547,67.871,40.039,68.359,67.871,0
1574374573.353,42.480,28.809,54.688,44.434,59.570,0
1574374573.356,44.434,66.406,33.203,55.664,53.711,0
1574374573.360,55.664,46.875,6.348,71.777,71.289,0
1574374573.364,74.707,50.781,50.781,90.332,93.262,0
1574374573.368,72.754,104.492,68.848,91.309,54.688,0
1574374573.372,34.668,50.293,34.668,17.578,18.066,0
1574374573.376,22.949,-6.836,38.086,15.625,37.109,0
1574374573.380,23.438,1.953,36.621,59.082,34.180,0
1574374573.384,41.504,3.906,24.414,62.500,19.043,0
1574374573.388,49.316,22.461,16.602,55.176,36.133,0
1574374573.392,44.922,69.336,32.227,52.734,54.199,0
1574374573.396,45.898,72.266,50.781,58.105,61.523,0
1574374573.399,47.363,31.250,44.922,61.035,79.590,0
1574374573.403,60.547,34.180,40.527,63.477,81.055,0
1574374573.407,54.688,62.012,33.691,59.570,54.199,0
1574374573.411,41.016,71.289,26.855,40.039,65.430,0
1574374573.415,47.852,47.852,36.133,34.180,98.145,0
1574374573.419,52.734,-4.883,37.598,69.336,90.332,0
1574374573.423,73.242,16.113,57.129,104.004,96.191,0
1574374573.427,80.078,54.199,42.969,92.285,108.887,0
1574374573.431,79.102,75.195,21.484,78.125,112.305,0
1574374573.435,46.387,70.801,26.367,57.617,101.074,0
1574374573.438,12.695,41.016,21.484,22.949,64.453,0
1574374573.442,19.531,20.020,7.324,14.160,43.945,0
1574374573.446,37.109,30.762,6.348,36.621,83.984,0
1574374573.450,56.152,31.738,38.574,72.266,92.773,0
1574374573.454,54.688,31.250,47.852,53.711,108.398,0
1574374573.458,51.270,53.711,47.363,40.039,115.234,0
1574374573.462,66.406,50.293,69.336,66.406,125.488,0
1574374573.466,83.008,41.992,54.199,82.031,159.180,0
1574374573.470,69.824,24.902,41.504,73.242,152.832,0
1574374573.474,47.852,19.531,52.246,54.199,145.996,0
1574374573.478,31.250,39.062,32.715,37.109,135.254,0
1574374573.481,43.945,47.852,27.832,32.227,135.254,0
1574374573.485,50.781,35.156,29.785,46.387,132.812,0
1574374573.489,48.340,29.297,1.953,60.547,160.645,0
1574374573.493,59.082,59.570,16.602,62.500,160.156,0
1574374573.497,47.363,63.965,45.898,44.922,127.930,0
1574374573.501,44.922,20.508,43.457,48.340,153.320,0
1574374573.505,71.777,17.578,36.133,71.777,163.086,0
1574374573.509,67.871,68.848,39.551,65.918,122.070,0
1574374573.513,31.738,77.637,23.926,41.016,103.027,0
1574374573.517,27.344,35.156,15.137,33.203,107.910,0
1574374573.521,56.641,22.949,51.758,53.711,105.957,0
1574374573.524,41.016,62.012,41.016,42.480,71.289,0
1574374573.528,10.742,50.781,6.348,9.766,34.668,0
1574374573.532,28.320,21.973,26.367,15.625,44.922,0
1574374573.536,32.227,16.113,29.297,29.785,34.180,0
1574374573.540,37.109,8.301,27.832,39.062,21.973,0
1574374573.544,41.504,16.602,28.809,29.785,21.973,0
1574374573.548,47.363,64.453,16.602,22.461,1.953,0
1574374573.552,61.523,51.758,13.184,61.035,25.391,0
1574374573.556,43.945,49.316,26.855,55.176,6.836,0
1574374573.560,42.969,86.914,50.293,35.645,-22.461,0
1574374573.563,32.715,62.012,52.246,26.367,-33.203,0
1574374573.567,22.949,25.391,36.621,27.832,-38.574,0
1574374573.571,32.715,44.434,28.320,41.016,-23.926,0
1574374573.575,33.203,79.590,21.973,39.062,-43.945,0
1574374573.579,41.992,56.641,6.836,31.250,-37.109,0
1574374573.583,46.387,59.570,34.668,30.762,-5.371,0
1574374573.587,44.434,45.410,60.547,49.805,-21.484,0
1574374573.591,33.203,23.926,59.082,53.223,-39.551,0
1574374573.595,39.062,34.180,52.734,46.875,-43.457,0
1574374573.599,51.758,49.805,42.969,57.617,-28.320,0
1574374573.603,32.715,80.078,32.227,53.223,-35.156,0
1574374573.606,22.949,53.223,3.906,30.762,-30.762,0
1574374573.610,28.809,32.227,3.906,28.809,-23.926,0
1574374573.614,27.344,38.086,41.016,21.973,-42.480,0
1574374573.618,30.762,59.082,46.387,23.438,-20.996,0
1574374573.622,35.645,59.082,38.574,32.715,-24.902,0
1574374573.626,38.086,29.785,40.527,44.922,-20.508,0
1574374573.630,35.156,17.090,31.738,45.410,-15.137,0
1574374573.634,17.578,41.016,34.180,28.320,-23.926,0
1574374573.638,45.898,70.801,41.016,43.457,9.277,0
1574374573.642,76.172,75.684,26.367,51.270,26.855,0
1574374573.646,49.805,21.973,1.465,28.809,29.785,0
1574374573.649,48.340,34.180,47.852,60.547,41.992,0
1574374573.653,50.293,92.773,74.219,70.312,23.438,0
1574374573.657,35.645,55.664,39.062,50.293,-1.465,0
1574374573.661,35.156,26.855,12.695,27.832,13.672,0
1574374573.665,33.691,46.387,25.391,22.461,32.715,0
1574374573.669,32.227,51.758,43.945,42.480,21.973,0
1574374573.673,46.387,52.734,45.898,51.758,41.992,0
1574374573.677,43.945,48.828,52.246,47.363,57.129,0
1574374573.681,30.762,35.156,30.762,32.715,28.320,0
1574374573.685,42.969,40.039,3.906,25.879,43.457,0
1574374573.688,53.711,44.922,29.785,47.852,48.828,0
1574374573.692,56.152,61.523,45.410,69.336,63.965,0
1574374573.696,44.434,28.320,47.363,66.895,45.410,0
1574374573.700,49.316,29.297,58.594,72.754,53.223,0
1574374573.704,67.383,74.707,37.109,71.777,92.285,0
1574374573.708,34.668,66.895,32.715,45.898,28.809,0
1574374573.712,23.438,34.180,39.062,40.527,-0.488,0
1574374573.716,32.227,-1.953,27.344,31.250,45.410,0
1574374573.720,32.715,7.324,18.066,15.137,60.547,0
1574374573.724,42.480,66.406,25.391,38.574,56.641,0
1574374573.728,39.062,61.035,44.434,46.875,50.293,0
